Unit:(mV)
                     CH1
Frequency     98.094 kHz
00001           -1760.00
00002           -1840.00
00003           -1840.00
00004           -1840.00
00005           -1840.00
00006           -2000.00
00007           -2080.00
00008           -2080.00
00009           -2000.00
00010           -2080.00
00011           -2080.00
00012           -2160.00
00013           -2160.00
00014           -2240.00
00015           -2240.00
00016           -2320.00
00017           -2320.00
00018           -2400.00
00019           -2400.00
00020           -2480.00
00021           -2480.00
00022           -2480.00
00023           -2480.00
00024           -2560.00
00025           -2640.00
00026           -2640.00
00027           -2720.00
00028           -2720.00
00029           -2720.00
00030           -2800.00
00031           -2800.00
00032           -2800.00
00033           -2800.00
00034           -2960.00
00035           -2960.00
00036           -2960.00
00037           -2960.00
00038           -2960.00
00039           -3040.00
00040           -3120.00
00041           -3040.00
00042           -3120.00
00043           -3200.00
00044           -3120.00
00045           -3280.00
00046           -3280.00
00047           -3280.00
00048           -3360.00
00049           -3280.00
00050           -3440.00
00051           -3440.00
00052           -3440.00
00053           -3440.00
00054           -3440.00
00055           -3600.00
00056           -3600.00
00057           -3600.00
00058           -3600.00
00059           -3600.00
00060           -3680.00
00061           -3680.00
00062           -3680.00
00063           -3760.00
00064           -3760.00
00065           -3760.00
00066           -3840.00
00067           -3840.00
00068           -3840.00
00069           -3840.00
00070           -4000.00
00071           -3920.00
00072           -3920.00
00073           -4000.00
00074           -4080.00
00075           -4080.00
00076           -4080.00
00077           -4080.00
00078           -4080.00
00079           -4080.00
00080           -4160.00
00081           -4080.00
00082           -4240.00
00083           -4240.00
00084           -4320.00
00085           -4240.00
00086           -4320.00
00087           -4320.00
00088           -4400.00
00089           -4320.00
00090           -4400.00
00091           -4400.00
00092           -4400.00
00093           -4400.00
00094           -4560.00
00095           -4560.00
00096           -4560.00
00097           -4640.00
00098           -4640.00
00099           -4640.00
00100           -4640.00
00101           -4720.00
00102           -4720.00
00103           -4720.00
00104           -4720.00
00105           -4720.00
00106           -4720.00
00107           -4800.00
00108           -4880.00
00109           -4880.00
00110           -4720.00
00111           -4880.00
00112           -4960.00
00113           -4960.00
00114           -4960.00
00115           -4960.00
00116           -4960.00
00117           -4960.00
00118           -4960.00
00119           -5040.00
00120           -5040.00
00121           -5040.00
00122           -5040.00
00123           -5040.00
00124           -5040.00
00125           -5120.00
00126           -5120.00
00127           -5040.00
00128           -5200.00
00129           -5200.00
00130           -5280.00
00131           -5200.00
00132           -5280.00
00133           -5280.00
00134           -5280.00
00135           -5280.00
00136           -5360.00
00137           -5280.00
00138           -5360.00
00139           -5360.00
00140           -5360.00
00141           -5360.00
00142           -5360.00
00143           -5360.00
00144           -5360.00
00145           -5360.00
00146           -5360.00
00147           -5440.00
00148           -5440.00
00149           -5360.00
00150           -5520.00
00151           -5520.00
00152           -5440.00
00153           -5520.00
00154           -5520.00
00155           -5520.00
00156           -5520.00
00157           -5600.00
00158           -5600.00
00159           -5520.00
00160           -5600.00
00161           -5600.00
00162           -5600.00
00163           -5600.00
00164           -5680.00
00165           -5600.00
00166           -5600.00
00167           -5600.00
00168           -5600.00
00169           -5600.00
00170           -5680.00
00171           -5680.00
00172           -5600.00
00173           -5680.00
00174           -5680.00
00175           -5680.00
00176           -5680.00
00177           -5840.00
00178           -5760.00
00179           -5680.00
00180           -5680.00
00181           -5680.00
00182           -5760.00
00183           -5840.00
00184           -5840.00
00185           -5680.00
00186           -5840.00
00187           -5760.00
00188           -5680.00
00189           -5760.00
00190           -5760.00
00191           -5840.00
00192           -5760.00
00193           -5760.00
00194           -5840.00
00195           -5840.00
00196           -5840.00
00197           -5840.00
00198           -5760.00
00199           -5840.00
00200           -5680.00
00201           -5840.00
00202           -5840.00
00203           -5760.00
00204           -5840.00
00205           -5680.00
00206           -5840.00
00207           -5760.00
00208           -5840.00
00209           -5840.00
00210           -5760.00
00211           -5840.00
00212           -5840.00
00213           -5840.00
00214           -5680.00
00215           -5760.00
00216           -5760.00
00217           -5680.00
00218           -5840.00
00219           -5680.00
00220           -5680.00
00221           -5840.00
00222           -5680.00
00223           -5840.00
00224           -5760.00
00225           -5680.00
00226           -5760.00
00227           -5680.00
00228           -5680.00
00229           -5680.00
00230           -5680.00
00231           -5680.00
00232           -5680.00
00233           -5680.00
00234           -5680.00
00235           -5680.00
00236           -5680.00
00237           -5680.00
00238           -5680.00
00239           -5600.00
00240           -5680.00
00241           -5680.00
00242           -5600.00
00243           -5600.00
00244           -5600.00
00245           -5600.00
00246           -5600.00
00247           -5600.00
00248           -5600.00
00249           -5600.00
00250           -5600.00
00251           -5520.00
00252           -5520.00
00253           -5600.00
00254           -5520.00
00255           -5520.00
00256           -5520.00
00257           -5440.00
00258           -5440.00
00259           -5360.00
00260           -5360.00
00261           -5360.00
00262           -5360.00
00263           -5360.00
00264           -5360.00
00265           -5360.00
00266           -5360.00
00267           -5360.00
00268           -5360.00
00269           -5280.00
00270           -5280.00
00271           -5280.00
00272           -5280.00
00273           -5280.00
00274           -5280.00
00275           -5280.00
00276           -5200.00
00277           -5200.00
00278           -5200.00
00279           -5200.00
00280           -5200.00
00281           -5120.00
00282           -5040.00
00283           -5040.00
00284           -5040.00
00285           -5040.00
00286           -5040.00
00287           -4960.00
00288           -5040.00
00289           -5040.00
00290           -4960.00
00291           -4960.00
00292           -4960.00
00293           -4960.00
00294           -4880.00
00295           -4960.00
00296           -4960.00
00297           -4880.00
00298           -4880.00
00299           -4800.00
00300           -4720.00
00301           -4720.00
00302           -4800.00
00303           -4720.00
00304           -4720.00
00305           -4640.00
00306           -4640.00
00307           -4640.00
00308           -4640.00
00309           -4640.00
00310           -4560.00
00311           -4560.00
00312           -4560.00
00313           -4560.00
00314           -4560.00
00315           -4480.00
00316           -4480.00
00317           -4400.00
00318           -4400.00
00319           -4400.00
00320           -4320.00
00321           -4320.00
00322           -4240.00
00323           -4320.00
00324           -4240.00
00325           -4320.00
00326           -4240.00
00327           -4240.00
00328           -4080.00
00329           -4080.00
00330           -4080.00
00331           -4080.00
00332           -4080.00
00333           -4080.00
00334           -4000.00
00335           -4000.00
00336           -3920.00
00337           -4000.00
00338           -3920.00
00339           -3920.00
00340           -3840.00
00341           -3920.00
00342           -3760.00
00343           -3680.00
00344           -3760.00
00345           -3680.00
00346           -3680.00
00347           -3680.00
00348           -3600.00
00349           -3600.00
00350           -3600.00
00351           -3440.00
00352           -3440.00
00353           -3600.00
00354           -3440.00
00355           -3440.00
00356           -3440.00
00357           -3360.00
00358           -3440.00
00359           -3360.00
00360           -3360.00
00361           -3360.00
00362           -3360.00
00363           -3280.00
00364           -3280.00
00365           -3280.00
00366           -3120.00
00367           -3120.00
00368           -3040.00
00369           -3040.00
00370           -3040.00
00371           -3040.00
00372           -2960.00
00373           -2960.00
00374           -2880.00
00375           -2800.00
00376           -2800.00
00377           -2800.00
00378           -2800.00
00379           -2720.00
00380           -2720.00
00381           -2720.00
00382           -2640.00
00383           -2640.00
00384           -2560.00
00385           -2560.00
00386           -2560.00
00387           -2480.00
00388           -2480.00
00389           -2400.00
00390           -2400.00
00391           -2400.00
00392           -2400.00
00393           -2320.00
00394           -2320.00
00395           -2160.00
00396           -2160.00
00397           -2160.00
00398           -2080.00
00399           -2080.00
00400           -2080.00
00401           -2000.00
00402           -2000.00
00403           -1840.00
00404           -2000.00
00405           -1840.00
00406           -1840.00
00407           -1760.00
00408           -1760.00
00409           -1760.00
00410           -1680.00
00411           -1680.00
00412           -1680.00
00413           -1600.00
00414           -1520.00
00415           -1520.00
00416           -1520.00
00417           -1520.00
00418           -1440.00
00419           -1440.00
00420           -1440.00
00421           -1360.00
00422           -1360.00
00423           -1360.00
00424           -1200.00
00425           -1200.00
00426           -1200.00
00427           -1120.00
00428           -1120.00
00429           -1120.00
00430           -1120.00
00431           -1040.00
00432           -1040.00
00433            -880.00
00434            -880.00
00435            -880.00
00436            -880.00
00437            -800.00
00438            -880.00
00439            -720.00
00440            -720.00
00441            -720.00
00442            -640.00
00443            -560.00
00444            -560.00
00445            -480.00
00446            -480.00
00447            -480.00
00448            -400.00
00449            -400.00
00450            -400.00
00451            -240.00
00452            -240.00
00453            -240.00
00454            -240.00
00455            -160.00
00456            -160.00
00457             -80.00
00458               0.00
00459             -80.00
00460              80.00
00461              80.00
00462              80.00
00463             160.00
00464             160.00
00465             160.00
00466             160.00
00467             240.00
00468             240.00
00469             400.00
00470             400.00
00471             400.00
00472             400.00
00473             400.00
00474             480.00
00475             560.00
00476             560.00
00477             560.00
00478             560.00
00479             720.00
00480             800.00
00481             800.00
00482             800.00
00483             800.00
00484             880.00
00485             880.00
00486            1040.00
00487            1040.00
00488            1040.00
00489            1040.00
00490            1040.00
00491            1120.00
00492            1120.00
00493            1120.00
00494            1200.00
00495            1200.00
00496            1360.00
00497            1360.00
00498            1360.00
00499            1440.00
00500            1440.00
00501            1440.00
00502            1440.00
00503            1520.00
00504            1600.00
00505            1680.00
00506            1600.00
00507            1680.00
00508            1680.00
00509            1760.00
00510            1760.00
00511            1760.00
00512            1760.00
00513            1840.00
00514            1840.00
00515            1920.00
00516            2000.00
00517            2080.00
00518            2080.00
00519            2080.00
00520            2080.00
00521            2160.00
00522            2160.00
00523            2240.00
00524            2320.00
00525            2320.00
00526            2320.00
00527            2400.00
00528            2400.00
00529            2400.00
00530            2480.00
00531            2560.00
00532            2560.00
00533            2640.00
00534            2640.00
00535            2640.00
00536            2640.00
00537            2720.00
00538            2720.00
00539            2720.00
00540            2800.00
00541            2800.00
00542            2800.00
00543            2880.00
00544            2960.00
00545            2880.00
00546            2960.00
00547            3040.00
00548            3040.00
00549            3040.00
00550            3040.00
00551            3040.00
00552            3200.00
00553            3120.00
00554            3280.00
00555            3280.00
00556            3280.00
00557            3280.00
00558            3360.00
00559            3360.00
00560            3360.00
00561            3360.00
00562            3440.00
00563            3440.00
00564            3440.00
00565            3440.00
00566            3600.00
00567            3600.00
00568            3600.00
00569            3600.00
00570            3600.00
00571            3680.00
00572            3680.00
00573            3760.00
00574            3760.00
00575            3760.00
00576            3840.00
00577            3920.00
00578            3920.00
00579            3920.00
00580            3920.00
00581            4000.00
00582            4080.00
00583            4000.00
00584            4000.00
00585            4080.00
00586            4000.00
00587            4080.00
00588            4160.00
00589            4240.00
00590            4240.00
00591            4240.00
00592            4320.00
00593            4240.00
00594            4320.00
00595            4320.00
00596            4400.00
00597            4400.00
00598            4400.00
00599            4400.00
00600            4400.00
00601            4400.00
00602            4480.00
00603            4560.00
00604            4560.00
00605            4560.00
00606            4640.00
00607            4640.00
00608            4640.00
00609            4640.00
00610            4720.00
00611            4720.00
00612            4720.00
00613            4720.00
00614            4720.00
00615            4800.00
00616            4720.00
00617            4880.00
00618            4880.00
00619            4880.00
00620            4880.00
00621            4880.00
00622            4880.00
00623            4960.00
00624            4960.00
00625            4960.00
00626            4960.00
00627            4960.00
00628            4960.00
00629            4960.00
00630            5040.00
00631            5040.00
00632            5040.00
00633            5040.00
00634            5120.00
00635            5120.00
00636            5200.00
00637            5200.00
00638            5200.00
00639            5200.00
00640            5200.00
00641            5280.00
00642            5200.00
00643            5280.00
00644            5280.00
00645            5280.00
00646            5280.00
00647            5280.00
00648            5360.00
00649            5360.00
00650            5280.00
00651            5360.00
00652            5360.00
00653            5360.00
00654            5520.00
00655            5440.00
00656            5520.00
00657            5360.00
00658            5520.00
00659            5520.00
00660            5520.00
00661            5520.00
00662            5520.00
00663            5600.00
00664            5520.00
00665            5520.00
00666            5600.00
00667            5600.00
00668            5600.00
00669            5600.00
00670            5600.00
00671            5600.00
00672            5600.00
00673            5600.00
00674            5680.00
00675            5680.00
00676            5680.00
00677            5680.00
00678            5680.00
00679            5680.00
00680            5680.00
00681            5680.00
00682            5680.00
00683            5680.00
00684            5680.00
00685            5840.00
00686            5680.00
00687            5680.00
00688            5760.00
00689            5760.00
00690            5680.00
00691            5760.00
00692            5840.00
00693            5680.00
00694            5840.00
00695            5760.00
00696            5760.00
00697            5760.00
00698            5760.00
00699            5760.00
00700            5840.00
00701            5760.00
00702            5840.00
00703            5840.00
00704            5840.00
00705            5840.00
00706            5760.00
00707            5840.00
00708            5840.00
00709            5840.00
00710            5840.00
00711            5840.00
00712            5840.00
00713            5840.00
00714            5840.00
00715            5840.00
00716            5840.00
00717            5840.00
00718            5840.00
00719            5840.00
00720            5840.00
00721            5840.00
00722            5840.00
00723            5840.00
00724            5840.00
00725            5840.00
00726            5840.00
00727            5840.00
00728            5760.00
00729            5840.00
00730            5840.00
00731            5840.00
00732            5760.00
00733            5840.00
00734            5680.00
00735            5840.00
00736            5840.00
00737            5680.00
00738            5840.00
00739            5840.00
00740            5760.00
00741            5680.00
00742            5760.00
00743            5760.00
00744            5680.00
00745            5760.00
00746            5680.00
00747            5680.00
00748            5600.00
00749            5680.00
00750            5600.00
00751            5680.00
00752            5600.00
00753            5600.00
00754            5600.00
00755            5600.00
00756            5600.00
00757            5600.00
00758            5520.00
00759            5520.00
00760            5520.00
00761            5600.00
00762            5520.00
00763            5520.00
00764            5520.00
00765            5520.00
00766            5520.00
