Unit:(mV)
                     CH1
Frequency     98.110 kHz
00001           -2400.00
00002           -2400.00
00003           -2480.00
00004           -2480.00
00005           -2560.00
00006           -2640.00
00007           -2640.00
00008           -2720.00
00009           -2720.00
00010           -2800.00
00011           -2800.00
00012           -2800.00
00013           -2960.00
00014           -3040.00
00015           -3040.00
00016           -3040.00
00017           -3040.00
00018           -3120.00
00019           -3120.00
00020           -3200.00
00021           -3280.00
00022           -3280.00
00023           -3360.00
00024           -3360.00
00025           -3440.00
00026           -3440.00
00027           -3520.00
00028           -3600.00
00029           -3600.00
00030           -3600.00
00031           -3680.00
00032           -3680.00
00033           -3680.00
00034           -3760.00
00035           -3920.00
00036           -3920.00
00037           -4000.00
00038           -4000.00
00039           -4000.00
00040           -4080.00
00041           -4080.00
00042           -4160.00
00043           -4080.00
00044           -4240.00
00045           -4320.00
00046           -4320.00
00047           -4400.00
00048           -4320.00
00049           -4400.00
00050           -4400.00
00051           -4560.00
00052           -4560.00
00053           -4640.00
00054           -4640.00
00055           -4720.00
00056           -4720.00
00057           -4720.00
00058           -4720.00
00059           -4800.00
00060           -4880.00
00061           -4880.00
00062           -4960.00
00063           -4960.00
00064           -4960.00
00065           -4960.00
00066           -5040.00
00067           -5040.00
00068           -5040.00
00069           -5200.00
00070           -5200.00
00071           -5280.00
00072           -5280.00
00073           -5280.00
00074           -5360.00
00075           -5360.00
00076           -5360.00
00077           -5440.00
00078           -5520.00
00079           -5520.00
00080           -5600.00
00081           -5600.00
00082           -5600.00
00083           -5600.00
00084           -5600.00
00085           -5680.00
00086           -5680.00
00087           -5680.00
00088           -5840.00
00089           -5840.00
00090           -5840.00
00091           -5920.00
00092           -5920.00
00093           -6000.00
00094           -5920.00
00095           -6000.00
00096           -6000.00
00097           -6000.00
00098           -6080.00
00099           -6160.00
00100           -6240.00
00101           -6160.00
00102           -6160.00
00103           -6240.00
00104           -6320.00
00105           -6320.00
00106           -6320.00
00107           -6320.00
00108           -6400.00
00109           -6400.00
00110           -6480.00
00111           -6480.00
00112           -6480.00
00113           -6560.00
00114           -6560.00
00115           -6560.00
00116           -6560.00
00117           -6640.00
00118           -6640.00
00119           -6640.00
00120           -6720.00
00121           -6720.00
00122           -6800.00
00123           -6800.00
00124           -6800.00
00125           -6880.00
00126           -6880.00
00127           -6880.00
00128           -6880.00
00129           -6880.00
00130           -6960.00
00131           -6880.00
00132           -6960.00
00133           -6960.00
00134           -6960.00
00135           -7120.00
00136           -6960.00
00137           -6960.00
00138           -7120.00
00139           -7040.00
00140           -7120.00
00141           -7200.00
00142           -7120.00
00143           -7200.00
00144           -7200.00
00145           -7200.00
00146           -7200.00
00147           -7200.00
00148           -7200.00
00149           -7280.00
00150           -7280.00
00151           -7280.00
00152           -7280.00
00153           -7280.00
00154           -7280.00
00155           -7280.00
00156           -7360.00
00157           -7360.00
00158           -7440.00
00159           -7440.00
00160           -7440.00
00161           -7440.00
00162           -7520.00
00163           -7520.00
00164           -7440.00
00165           -7520.00
00166           -7520.00
00167           -7520.00
00168           -7520.00
00169           -7520.00
00170           -7600.00
00171           -7520.00
00172           -7520.00
00173           -7520.00
00174           -7520.00
00175           -7600.00
00176           -7600.00
00177           -7520.00
00178           -7600.00
00179           -7600.00
00180           -7600.00
00181           -7600.00
00182           -7600.00
00183           -7600.00
00184           -7600.00
00185           -7680.00
00186           -7600.00
00187           -7760.00
00188           -7600.00
00189           -7600.00
00190           -7760.00
00191           -7680.00
00192           -7600.00
00193           -7760.00
00194           -7600.00
00195           -7760.00
00196           -7600.00
00197           -7600.00
00198           -7680.00
00199           -7680.00
00200           -7680.00
00201           -7680.00
00202           -7680.00
00203           -7600.00
00204           -7760.00
00205           -7600.00
00206           -7600.00
00207           -7680.00
00208           -7600.00
00209           -7760.00
00210           -7600.00
00211           -7680.00
00212           -7760.00
00213           -7600.00
00214           -7600.00
00215           -7600.00
00216           -7600.00
00217           -7680.00
00218           -7600.00
00219           -7600.00
00220           -7600.00
00221           -7600.00
00222           -7600.00
00223           -7600.00
00224           -7600.00
00225           -7600.00
00226           -7600.00
00227           -7600.00
00228           -7600.00
00229           -7520.00
00230           -7600.00
00231           -7600.00
00232           -7600.00
00233           -7600.00
00234           -7520.00
00235           -7520.00
00236           -7600.00
00237           -7520.00
00238           -7520.00
00239           -7600.00
00240           -7520.00
00241           -7520.00
00242           -7520.00
00243           -7520.00
00244           -7520.00
00245           -7520.00
00246           -7520.00
00247           -7440.00
00248           -7520.00
00249           -7440.00
00250           -7440.00
00251           -7360.00
00252           -7280.00
00253           -7280.00
00254           -7360.00
00255           -7280.00
00256           -7280.00
00257           -7280.00
00258           -7200.00
00259           -7200.00
00260           -7200.00
00261           -7200.00
00262           -7200.00
00263           -7200.00
00264           -7200.00
00265           -7200.00
00266           -7200.00
00267           -7120.00
00268           -7120.00
00269           -6960.00
00270           -7040.00
00271           -6960.00
00272           -6960.00
00273           -6960.00
00274           -6960.00
00275           -6960.00
00276           -6880.00
00277           -6880.00
00278           -6880.00
00279           -6880.00
00280           -6880.00
00281           -6880.00
00282           -6880.00
00283           -6880.00
00284           -6800.00
00285           -6720.00
00286           -6640.00
00287           -6640.00
00288           -6640.00
00289           -6640.00
00290           -6640.00
00291           -6640.00
00292           -6560.00
00293           -6560.00
00294           -6560.00
00295           -6480.00
00296           -6480.00
00297           -6480.00
00298           -6320.00
00299           -6480.00
00300           -6480.00
00301           -6320.00
00302           -6320.00
00303           -6240.00
00304           -6320.00
00305           -6240.00
00306           -6240.00
00307           -6160.00
00308           -6240.00
00309           -6160.00
00310           -6160.00
00311           -6000.00
00312           -6000.00
00313           -6000.00
00314           -6000.00
00315           -5920.00
00316           -5920.00
00317           -5920.00
00318           -5920.00
00319           -5840.00
00320           -5840.00
00321           -5680.00
00322           -5680.00
00323           -5680.00
00324           -5680.00
00325           -5600.00
00326           -5600.00
00327           -5600.00
00328           -5520.00
00329           -5520.00
00330           -5440.00
00331           -5520.00
00332           -5360.00
00333           -5360.00
00334           -5360.00
00335           -5280.00
00336           -5280.00
00337           -5200.00
00338           -5200.00
00339           -5200.00
00340           -5040.00
00341           -5040.00
00342           -5040.00
00343           -5040.00
00344           -5040.00
00345           -4960.00
00346           -4960.00
00347           -4880.00
00348           -4880.00
00349           -4880.00
00350           -4720.00
00351           -4720.00
00352           -4720.00
00353           -4640.00
00354           -4640.00
00355           -4560.00
00356           -4560.00
00357           -4400.00
00358           -4400.00
00359           -4400.00
00360           -4400.00
00361           -4400.00
00362           -4240.00
00363           -4320.00
00364           -4240.00
00365           -4240.00
00366           -4080.00
00367           -4160.00
00368           -4080.00
00369           -4080.00
00370           -4000.00
00371           -4000.00
00372           -3920.00
00373           -3920.00
00374           -3920.00
00375           -3760.00
00376           -3760.00
00377           -3680.00
00378           -3680.00
00379           -3680.00
00380           -3680.00
00381           -3600.00
00382           -3440.00
00383           -3440.00
00384           -3440.00
00385           -3440.00
00386           -3360.00
00387           -3360.00
00388           -3360.00
00389           -3120.00
00390           -3120.00
00391           -3120.00
00392           -3040.00
00393           -3040.00
00394           -3040.00
00395           -2960.00
00396           -2960.00
00397           -2880.00
00398           -2800.00
00399           -2800.00
00400           -2720.00
00401           -2720.00
00402           -2640.00
00403           -2640.00
00404           -2560.00
00405           -2400.00
00406           -2480.00
00407           -2400.00
00408           -2400.00
00409           -2400.00
00410           -2320.00
00411           -2320.00
00412           -2160.00
00413           -2160.00
00414           -2160.00
00415           -2080.00
00416           -2000.00
00417           -2000.00
00418           -1840.00
00419           -1840.00
00420           -1760.00
00421           -1760.00
00422           -1760.00
00423           -1680.00
00424           -1680.00
00425           -1600.00
00426           -1520.00
00427           -1520.00
00428           -1440.00
00429           -1440.00
00430           -1440.00
00431           -1360.00
00432           -1280.00
00433           -1200.00
00434           -1120.00
00435           -1120.00
00436           -1120.00
00437           -1120.00
00438           -1040.00
00439           -1040.00
00440            -880.00
00441            -880.00
00442            -880.00
00443            -880.00
00444            -800.00
00445            -720.00
00446            -560.00
00447            -560.00
00448            -560.00
00449            -560.00
00450            -480.00
00451            -400.00
00452            -400.00
00453            -240.00
00454            -240.00
00455            -240.00
00456            -160.00
00457             -80.00
00458             -80.00
00459             -80.00
00460              80.00
00461              80.00
00462              80.00
00463              80.00
00464             160.00
00465             160.00
00466             320.00
00467             400.00
00468             400.00
00469             480.00
00470             560.00
00471             560.00
00472             560.00
00473             560.00
00474             720.00
00475             800.00
00476             800.00
00477             800.00
00478             800.00
00479            1040.00
00480            1040.00
00481            1040.00
00482            1120.00
00483            1120.00
00484            1200.00
00485            1200.00
00486            1360.00
00487            1280.00
00488            1360.00
00489            1440.00
00490            1440.00
00491            1440.00
00492            1520.00
00493            1520.00
00494            1680.00
00495            1680.00
00496            1680.00
00497            1760.00
00498            1840.00
00499            1840.00
00500            1840.00
00501            2000.00
00502            2000.00
00503            2080.00
00504            2080.00
00505            2080.00
00506            2160.00
00507            2160.00
00508            2160.00
00509            2320.00
00510            2320.00
00511            2400.00
00512            2480.00
00513            2480.00
00514            2640.00
00515            2640.00
00516            2640.00
00517            2720.00
00518            2720.00
00519            2800.00
00520            2800.00
00521            2960.00
00522            2960.00
00523            2960.00
00524            3040.00
00525            3040.00
00526            3040.00
00527            3040.00
00528            3200.00
00529            3200.00
00530            3280.00
00531            3360.00
00532            3360.00
00533            3360.00
00534            3440.00
00535            3520.00
00536            3520.00
00537            3600.00
00538            3600.00
00539            3680.00
00540            3680.00
00541            3760.00
00542            3760.00
00543            3840.00
00544            3840.00
00545            3920.00
00546            3920.00
00547            4000.00
00548            4080.00
00549            4080.00
00550            4080.00
00551            4160.00
00552            4240.00
00553            4240.00
00554            4240.00
00555            4320.00
00556            4400.00
00557            4400.00
00558            4400.00
00559            4480.00
00560            4480.00
00561            4560.00
00562            4560.00
00563            4640.00
00564            4640.00
00565            4720.00
00566            4720.00
00567            4720.00
00568            4720.00
00569            4880.00
00570            4880.00
00571            4880.00
00572            4960.00
00573            4960.00
00574            5040.00
00575            5040.00
00576            5040.00
00577            5200.00
00578            5200.00
00579            5200.00
00580            5200.00
00581            5280.00
00582            5280.00
00583            5360.00
00584            5280.00
00585            5440.00
00586            5440.00
00587            5520.00
00588            5520.00
00589            5600.00
00590            5600.00
00591            5680.00
00592            5680.00
00593            5680.00
00594            5760.00
00595            5680.00
00596            5840.00
00597            5840.00
00598            5840.00
00599            5920.00
00600            5920.00
00601            6000.00
00602            6000.00
00603            6000.00
00604            6000.00
00605            6080.00
00606            6080.00
00607            6160.00
00608            6160.00
00609            6160.00
00610            6160.00
00611            6240.00
00612            6320.00
00613            6240.00
00614            6320.00
00615            6320.00
00616            6400.00
00617            6480.00
00618            6480.00
00619            6480.00
00620            6480.00
00621            6560.00
00622            6480.00
00623            6480.00
00624            6560.00
00625            6560.00
00626            6560.00
00627            6560.00
00628            6640.00
00629            6640.00
00630            6640.00
00631            6720.00
00632            6800.00
00633            6800.00
00634            6800.00
00635            6800.00
00636            6880.00
00637            6800.00
00638            6880.00
00639            6880.00
00640            6880.00
00641            6880.00
00642            6960.00
00643            6960.00
00644            6960.00
00645            7120.00
00646            7040.00
00647            7120.00
00648            7120.00
00649            7200.00
00650            7120.00
00651            7200.00
00652            7200.00
00653            7200.00
00654            7200.00
00655            7200.00
00656            7280.00
00657            7200.00
00658            7280.00
00659            7280.00
00660            7280.00
00661            7280.00
00662            7440.00
00663            7440.00
00664            7440.00
00665            7440.00
00666            7440.00
00667            7440.00
00668            7440.00
00669            7440.00
00670            7440.00
00671            7440.00
00672            7440.00
00673            7440.00
00674            7520.00
00675            7520.00
00676            7520.00
00677            7520.00
00678            7520.00
00679            7520.00
00680            7520.00
00681            7520.00
00682            7600.00
00683            7600.00
00684            7600.00
00685            7600.00
00686            7520.00
00687            7600.00
00688            7600.00
00689            7600.00
00690            7600.00
00691            7600.00
00692            7600.00
00693            7600.00
00694            7600.00
00695            7680.00
00696            7680.00
00697            7600.00
00698            7600.00
00699            7760.00
00700            7680.00
00701            7760.00
00702            7600.00
00703            7680.00
00704            7760.00
00705            7680.00
00706            7600.00
00707            7680.00
00708            7760.00
00709            7760.00
00710            7680.00
00711            7760.00
00712            7760.00
00713            7760.00
00714            7760.00
00715            7760.00
00716            7760.00
00717            7760.00
00718            7760.00
00719            7760.00
00720            7760.00
00721            7760.00
00722            7760.00
00723            7760.00
00724            7600.00
00725            7760.00
00726            7680.00
00727            7760.00
00728            7760.00
00729            7760.00
00730            7680.00
00731            7600.00
00732            7760.00
00733            7680.00
00734            7680.00
00735            7600.00
00736            7680.00
00737            7600.00
00738            7600.00
00739            7600.00
00740            7600.00
00741            7600.00
00742            7600.00
00743            7600.00
00744            7600.00
00745            7520.00
00746            7600.00
00747            7520.00
00748            7520.00
00749            7520.00
00750            7520.00
00751            7520.00
00752            7440.00
00753            7520.00
00754            7440.00
00755            7440.00
00756            7440.00
00757            7440.00
00758            7360.00
00759            7440.00
00760            7440.00
00761            7360.00
00762            7280.00
00763            7360.00
00764            7360.00
00765            7280.00
00766            7360.00
