Unit:(mV)
                     CH1
Frequency     98.064 kHz
00001            -400.00
00002            -400.00
00003            -400.00
00004            -400.00
00005            -400.00
00006            -400.00
00007            -400.00
00008            -400.00
00009            -400.00
00010            -480.00
00011            -400.00
00012            -400.00
00013            -480.00
00014            -480.00
00015            -480.00
00016            -480.00
00017            -480.00
00018            -480.00
00019            -480.00
00020            -480.00
00021            -480.00
00022            -480.00
00023            -480.00
00024            -480.00
00025            -480.00
00026            -480.00
00027            -480.00
00028            -560.00
00029            -560.00
00030            -560.00
00031            -560.00
00032            -560.00
00033            -560.00
00034            -560.00
00035            -560.00
00036            -560.00
00037            -560.00
00038            -560.00
00039            -560.00
00040            -720.00
00041            -720.00
00042            -560.00
00043            -720.00
00044            -720.00
00045            -720.00
00046            -720.00
00047            -720.00
00048            -720.00
00049            -800.00
00050            -720.00
00051            -800.00
00052            -800.00
00053            -800.00
00054            -800.00
00055            -800.00
00056            -800.00
00057            -800.00
00058            -800.00
00059            -800.00
00060            -880.00
00061            -800.00
00062            -800.00
00063            -880.00
00064            -800.00
00065            -880.00
00066            -880.00
00067            -800.00
00068            -880.00
00069            -800.00
00070            -880.00
00071            -880.00
00072            -880.00
00073            -880.00
00074            -880.00
00075            -880.00
00076            -880.00
00077            -880.00
00078            -880.00
00079            -880.00
00080            -880.00
00081            -880.00
00082            -880.00
00083            -880.00
00084            -880.00
00085            -880.00
00086            -880.00
00087            -960.00
00088            -880.00
00089           -1040.00
00090           -1040.00
00091            -960.00
00092            -880.00
00093            -960.00
00094            -960.00
00095            -880.00
00096           -1040.00
00097           -1040.00
00098           -1040.00
00099           -1040.00
00100            -960.00
00101           -1040.00
00102           -1040.00
00103           -1040.00
00104           -1040.00
00105           -1040.00
00106           -1120.00
00107           -1120.00
00108           -1040.00
00109           -1120.00
00110           -1120.00
00111           -1120.00
00112           -1120.00
00113           -1120.00
00114           -1120.00
00115           -1120.00
00116           -1120.00
00117           -1120.00
00118           -1120.00
00119           -1120.00
00120           -1120.00
00121           -1120.00
00122           -1120.00
00123           -1200.00
00124           -1120.00
00125           -1200.00
00126           -1120.00
00127           -1120.00
00128           -1200.00
00129           -1200.00
00130           -1120.00
00131           -1200.00
00132           -1200.00
00133           -1200.00
00134           -1200.00
00135           -1120.00
00136           -1200.00
00137           -1200.00
00138           -1200.00
00139           -1120.00
00140           -1120.00
00141           -1120.00
00142           -1200.00
00143           -1200.00
00144           -1200.00
00145           -1200.00
00146           -1200.00
00147           -1200.00
00148           -1200.00
00149           -1200.00
00150           -1200.00
00151           -1200.00
00152           -1200.00
00153           -1120.00
00154           -1200.00
00155           -1200.00
00156           -1200.00
00157           -1200.00
00158           -1200.00
00159           -1200.00
00160           -1280.00
00161           -1200.00
00162           -1200.00
00163           -1200.00
00164           -1280.00
00165           -1200.00
00166           -1200.00
00167           -1280.00
00168           -1360.00
00169           -1200.00
00170           -1280.00
00171           -1200.00
00172           -1200.00
00173           -1200.00
00174           -1280.00
00175           -1280.00
00176           -1360.00
00177           -1200.00
00178           -1360.00
00179           -1280.00
00180           -1360.00
00181           -1360.00
00182           -1360.00
00183           -1360.00
00184           -1200.00
00185           -1440.00
00186           -1360.00
00187           -1440.00
00188           -1360.00
00189           -1360.00
00190           -1360.00
00191           -1360.00
00192           -1360.00
00193           -1280.00
00194           -1360.00
00195           -1360.00
00196           -1360.00
00197           -1360.00
00198           -1360.00
00199           -1360.00
00200           -1360.00
00201           -1360.00
00202           -1360.00
00203           -1360.00
00204           -1360.00
00205           -1360.00
00206           -1360.00
00207           -1360.00
00208           -1360.00
00209           -1360.00
00210           -1360.00
00211           -1360.00
00212           -1360.00
00213           -1360.00
00214           -1360.00
00215           -1360.00
00216           -1360.00
00217           -1360.00
00218           -1280.00
00219           -1360.00
00220           -1360.00
00221           -1360.00
00222           -1280.00
00223           -1360.00
00224           -1360.00
00225           -1280.00
00226           -1360.00
00227           -1200.00
00228           -1360.00
00229           -1360.00
00230           -1280.00
00231           -1280.00
00232           -1360.00
00233           -1280.00
00234           -1360.00
00235           -1200.00
00236           -1200.00
00237           -1360.00
00238           -1200.00
00239           -1360.00
00240           -1280.00
00241           -1280.00
00242           -1200.00
00243           -1360.00
00244           -1280.00
00245           -1360.00
00246           -1200.00
00247           -1200.00
00248           -1360.00
00249           -1280.00
00250           -1360.00
00251           -1200.00
00252           -1360.00
00253           -1360.00
00254           -1360.00
00255           -1280.00
00256           -1200.00
00257           -1360.00
00258           -1280.00
00259           -1360.00
00260           -1200.00
00261           -1360.00
00262           -1200.00
00263           -1200.00
00264           -1280.00
00265           -1200.00
00266           -1200.00
00267           -1200.00
00268           -1200.00
00269           -1200.00
00270           -1200.00
00271           -1200.00
00272           -1200.00
00273           -1200.00
00274           -1200.00
00275           -1200.00
00276           -1200.00
00277           -1200.00
00278           -1200.00
00279           -1120.00
00280           -1200.00
00281           -1200.00
00282           -1120.00
00283           -1120.00
00284           -1120.00
00285           -1200.00
00286           -1120.00
00287           -1120.00
00288           -1120.00
00289           -1200.00
00290           -1120.00
00291           -1200.00
00292           -1120.00
00293           -1120.00
00294           -1200.00
00295           -1120.00
00296           -1120.00
00297           -1120.00
00298           -1120.00
00299           -1120.00
00300           -1120.00
00301           -1120.00
00302           -1120.00
00303           -1120.00
00304           -1120.00
00305           -1120.00
00306           -1120.00
00307           -1120.00
00308           -1120.00
00309           -1040.00
00310           -1120.00
00311           -1120.00
00312           -1120.00
00313           -1120.00
00314           -1120.00
00315           -1120.00
00316           -1040.00
00317           -1040.00
00318           -1120.00
00319           -1040.00
00320           -1040.00
00321           -1040.00
00322           -1040.00
00323           -1040.00
00324           -1040.00
00325           -1040.00
00326           -1120.00
00327           -1040.00
00328           -1040.00
00329            -960.00
00330           -1040.00
00331           -1040.00
00332           -1040.00
00333            -960.00
00334            -880.00
00335            -880.00
00336            -880.00
00337            -880.00
00338            -880.00
00339            -880.00
00340            -880.00
00341            -880.00
00342            -880.00
00343            -880.00
00344            -880.00
00345            -880.00
00346            -880.00
00347            -880.00
00348            -880.00
00349            -880.00
00350            -880.00
00351            -880.00
00352            -800.00
00353            -800.00
00354            -800.00
00355            -800.00
00356            -800.00
00357            -800.00
00358            -800.00
00359            -800.00
00360            -800.00
00361            -800.00
00362            -800.00
00363            -800.00
00364            -800.00
00365            -720.00
00366            -720.00
00367            -800.00
00368            -800.00
00369            -800.00
00370            -720.00
00371            -720.00
00372            -800.00
00373            -720.00
00374            -720.00
00375            -720.00
00376            -720.00
00377            -720.00
00378            -720.00
00379            -720.00
00380            -720.00
00381            -560.00
00382            -720.00
00383            -720.00
00384            -640.00
00385            -640.00
00386            -720.00
00387            -560.00
00388            -640.00
00389            -640.00
00390            -560.00
00391            -640.00
00392            -560.00
00393            -560.00
00394            -480.00
00395            -560.00
00396            -560.00
00397            -560.00
00398            -480.00
00399            -480.00
00400            -560.00
00401            -480.00
00402            -480.00
00403            -480.00
00404            -480.00
00405            -480.00
00406            -480.00
00407            -480.00
00408            -480.00
00409            -480.00
00410            -480.00
00411            -480.00
00412            -400.00
00413            -400.00
00414            -400.00
00415            -400.00
00416            -400.00
00417            -400.00
00418            -400.00
00419            -400.00
00420            -400.00
00421            -320.00
00422            -320.00
00423            -400.00
00424            -240.00
00425            -240.00
00426            -240.00
00427            -320.00
00428            -240.00
00429            -240.00
00430            -240.00
00431            -240.00
00432            -240.00
00433            -240.00
00434            -240.00
00435            -240.00
00436            -240.00
00437            -240.00
00438            -240.00
00439            -240.00
00440            -240.00
00441            -240.00
00442            -240.00
00443            -240.00
00444            -240.00
00445            -160.00
00446            -160.00
00447            -160.00
00448            -160.00
00449            -160.00
00450            -160.00
00451            -160.00
00452            -160.00
00453            -160.00
00454            -160.00
00455            -160.00
00456            -160.00
00457            -160.00
00458             -80.00
00459             -80.00
00460             -80.00
00461             -80.00
00462             -80.00
00463               0.00
00464             -80.00
00465               0.00
00466               0.00
00467             -80.00
00468              80.00
00469              80.00
00470              80.00
00471              80.00
00472              80.00
00473             160.00
00474              80.00
00475              80.00
00476              80.00
00477              80.00
00478              80.00
00479             160.00
00480              80.00
00481             160.00
00482             160.00
00483             160.00
00484             160.00
00485             160.00
00486             160.00
00487             160.00
00488             160.00
00489             160.00
00490             240.00
00491             160.00
00492             240.00
00493             240.00
00494             160.00
00495             240.00
00496             240.00
00497             240.00
00498             160.00
00499             240.00
00500             240.00
00501             240.00
00502             320.00
00503             240.00
00504             240.00
00505             320.00
00506             320.00
00507             400.00
00508             400.00
00509             400.00
00510             400.00
00511             320.00
00512             400.00
00513             400.00
00514             400.00
00515             400.00
00516             400.00
00517             400.00
00518             400.00
00519             400.00
00520             400.00
00521             480.00
00522             400.00
00523             480.00
00524             480.00
00525             480.00
00526             480.00
00527             480.00
00528             480.00
00529             560.00
00530             480.00
00531             480.00
00532             480.00
00533             480.00
00534             560.00
00535             560.00
00536             560.00
00537             560.00
00538             560.00
00539             560.00
00540             560.00
00541             720.00
00542             560.00
00543             720.00
00544             640.00
00545             720.00
00546             720.00
00547             640.00
00548             640.00
00549             720.00
00550             640.00
00551             720.00
00552             720.00
00553             720.00
00554             720.00
00555             800.00
00556             720.00
00557             720.00
00558             720.00
00559             720.00
00560             800.00
00561             720.00
00562             800.00
00563             800.00
00564             800.00
00565             800.00
00566             800.00
00567             800.00
00568             720.00
00569             800.00
00570             800.00
00571             800.00
00572             720.00
00573             800.00
00574             800.00
00575             800.00
00576             800.00
00577             800.00
00578             880.00
00579             800.00
00580             800.00
00581             880.00
00582             800.00
00583             880.00
00584             880.00
00585             880.00
00586             880.00
00587             880.00
00588             880.00
00589             880.00
00590             880.00
00591             880.00
00592             880.00
00593             880.00
00594             880.00
00595             880.00
00596             960.00
00597            1040.00
00598             960.00
00599            1040.00
00600             880.00
00601            1040.00
00602            1040.00
00603            1040.00
00604            1040.00
00605            1040.00
00606            1040.00
00607            1040.00
00608            1040.00
00609            1040.00
00610            1040.00
00611            1040.00
00612            1040.00
00613            1120.00
00614            1040.00
00615            1120.00
00616            1040.00
00617            1120.00
00618            1120.00
00619            1040.00
00620            1120.00
00621            1120.00
00622            1120.00
00623            1040.00
00624            1120.00
00625            1120.00
00626            1120.00
00627            1120.00
00628            1120.00
00629            1120.00
00630            1120.00
00631            1120.00
00632            1120.00
00633            1200.00
00634            1120.00
00635            1120.00
00636            1120.00
00637            1040.00
00638            1120.00
00639            1120.00
00640            1120.00
00641            1120.00
00642            1120.00
00643            1200.00
00644            1120.00
00645            1200.00
00646            1120.00
00647            1200.00
00648            1120.00
00649            1200.00
00650            1120.00
00651            1200.00
00652            1120.00
00653            1200.00
00654            1200.00
00655            1200.00
00656            1280.00
00657            1200.00
00658            1200.00
00659            1200.00
00660            1200.00
00661            1200.00
00662            1360.00
00663            1280.00
00664            1360.00
00665            1200.00
00666            1200.00
00667            1200.00
00668            1360.00
00669            1280.00
00670            1280.00
00671            1360.00
00672            1360.00
00673            1360.00
00674            1360.00
00675            1360.00
00676            1360.00
00677            1360.00
00678            1360.00
00679            1360.00
00680            1360.00
00681            1360.00
00682            1360.00
00683            1200.00
00684            1360.00
00685            1360.00
00686            1360.00
00687            1360.00
00688            1360.00
00689            1280.00
00690            1360.00
00691            1360.00
00692            1360.00
00693            1360.00
00694            1360.00
00695            1360.00
00696            1360.00
00697            1360.00
00698            1360.00
00699            1360.00
00700            1360.00
00701            1360.00
00702            1280.00
00703            1360.00
00704            1360.00
00705            1360.00
00706            1360.00
00707            1360.00
00708            1360.00
00709            1360.00
00710            1360.00
00711            1360.00
00712            1360.00
00713            1360.00
00714            1360.00
00715            1360.00
00716            1360.00
00717            1360.00
00718            1360.00
00719            1360.00
00720            1200.00
00721            1360.00
00722            1360.00
00723            1360.00
00724            1360.00
00725            1360.00
00726            1360.00
00727            1360.00
00728            1360.00
00729            1360.00
00730            1360.00
00731            1360.00
00732            1360.00
00733            1360.00
00734            1360.00
00735            1360.00
00736            1360.00
00737            1360.00
00738            1360.00
00739            1360.00
00740            1360.00
00741            1360.00
00742            1360.00
00743            1360.00
00744            1360.00
00745            1360.00
00746            1360.00
00747            1360.00
00748            1360.00
00749            1360.00
00750            1360.00
00751            1200.00
00752            1360.00
00753            1360.00
00754            1360.00
00755            1280.00
00756            1360.00
00757            1280.00
00758            1360.00
00759            1280.00
00760            1360.00
00761            1360.00
00762            1360.00
00763            1280.00
00764            1280.00
00765            1200.00
00766            1200.00
