Unit:(mV)
                     CH1
Frequency     98.106 kHz
00001           -2160.00
00002           -2320.00
00003           -2320.00
00004           -2400.00
00005           -2400.00
00006           -2480.00
00007           -2480.00
00008           -2480.00
00009           -2640.00
00010           -2640.00
00011           -2640.00
00012           -2720.00
00013           -2720.00
00014           -2720.00
00015           -2800.00
00016           -2800.00
00017           -2800.00
00018           -2960.00
00019           -2960.00
00020           -2960.00
00021           -3040.00
00022           -3040.00
00023           -3120.00
00024           -3120.00
00025           -3280.00
00026           -3280.00
00027           -3280.00
00028           -3280.00
00029           -3360.00
00030           -3360.00
00031           -3360.00
00032           -3440.00
00033           -3440.00
00034           -3520.00
00035           -3520.00
00036           -3600.00
00037           -3600.00
00038           -3680.00
00039           -3680.00
00040           -3680.00
00041           -3680.00
00042           -3760.00
00043           -3920.00
00044           -3920.00
00045           -3920.00
00046           -4000.00
00047           -3920.00
00048           -4000.00
00049           -4000.00
00050           -4000.00
00051           -4080.00
00052           -4080.00
00053           -4160.00
00054           -4160.00
00055           -4240.00
00056           -4240.00
00057           -4240.00
00058           -4320.00
00059           -4400.00
00060           -4400.00
00061           -4400.00
00062           -4480.00
00063           -4560.00
00064           -4560.00
00065           -4640.00
00066           -4640.00
00067           -4640.00
00068           -4720.00
00069           -4720.00
00070           -4720.00
00071           -4800.00
00072           -4880.00
00073           -4880.00
00074           -4960.00
00075           -4960.00
00076           -4960.00
00077           -4960.00
00078           -5040.00
00079           -5040.00
00080           -5040.00
00081           -5040.00
00082           -5200.00
00083           -5200.00
00084           -5200.00
00085           -5200.00
00086           -5280.00
00087           -5280.00
00088           -5280.00
00089           -5360.00
00090           -5360.00
00091           -5360.00
00092           -5360.00
00093           -5360.00
00094           -5520.00
00095           -5520.00
00096           -5520.00
00097           -5520.00
00098           -5600.00
00099           -5600.00
00100           -5600.00
00101           -5600.00
00102           -5680.00
00103           -5680.00
00104           -5680.00
00105           -5680.00
00106           -5680.00
00107           -5840.00
00108           -5840.00
00109           -5840.00
00110           -5840.00
00111           -5920.00
00112           -5920.00
00113           -5920.00
00114           -5920.00
00115           -5920.00
00116           -6000.00
00117           -6000.00
00118           -6000.00
00119           -6000.00
00120           -6000.00
00121           -6160.00
00122           -6080.00
00123           -6160.00
00124           -6160.00
00125           -6240.00
00126           -6240.00
00127           -6240.00
00128           -6240.00
00129           -6240.00
00130           -6240.00
00131           -6240.00
00132           -6320.00
00133           -6320.00
00134           -6320.00
00135           -6320.00
00136           -6320.00
00137           -6480.00
00138           -6400.00
00139           -6480.00
00140           -6400.00
00141           -6480.00
00142           -6480.00
00143           -6480.00
00144           -6560.00
00145           -6480.00
00146           -6560.00
00147           -6560.00
00148           -6640.00
00149           -6560.00
00150           -6640.00
00151           -6640.00
00152           -6640.00
00153           -6640.00
00154           -6640.00
00155           -6640.00
00156           -6640.00
00157           -6640.00
00158           -6640.00
00159           -6720.00
00160           -6720.00
00161           -6640.00
00162           -6720.00
00163           -6720.00
00164           -6720.00
00165           -6800.00
00166           -6800.00
00167           -6800.00
00168           -6800.00
00169           -6880.00
00170           -6800.00
00171           -6880.00
00172           -6880.00
00173           -6880.00
00174           -6880.00
00175           -6880.00
00176           -6880.00
00177           -6880.00
00178           -6880.00
00179           -6880.00
00180           -6880.00
00181           -6880.00
00182           -6880.00
00183           -6880.00
00184           -6880.00
00185           -6880.00
00186           -6880.00
00187           -6880.00
00188           -6880.00
00189           -6960.00
00190           -6960.00
00191           -6960.00
00192           -6960.00
00193           -6960.00
00194           -6960.00
00195           -6880.00
00196           -6880.00
00197           -6960.00
00198           -6960.00
00199           -6960.00
00200           -6960.00
00201           -6960.00
00202           -6960.00
00203           -6960.00
00204           -6960.00
00205           -6960.00
00206           -6960.00
00207           -6960.00
00208           -6960.00
00209           -6960.00
00210           -6960.00
00211           -6880.00
00212           -6880.00
00213           -6880.00
00214           -6960.00
00215           -6880.00
00216           -6960.00
00217           -6880.00
00218           -6880.00
00219           -6880.00
00220           -6960.00
00221           -6880.00
00222           -6880.00
00223           -6880.00
00224           -6880.00
00225           -6880.00
00226           -6880.00
00227           -6880.00
00228           -6880.00
00229           -6880.00
00230           -6880.00
00231           -6880.00
00232           -6800.00
00233           -6800.00
00234           -6800.00
00235           -6800.00
00236           -6800.00
00237           -6800.00
00238           -6800.00
00239           -6800.00
00240           -6640.00
00241           -6800.00
00242           -6720.00
00243           -6720.00
00244           -6640.00
00245           -6640.00
00246           -6720.00
00247           -6640.00
00248           -6640.00
00249           -6640.00
00250           -6640.00
00251           -6640.00
00252           -6560.00
00253           -6640.00
00254           -6560.00
00255           -6640.00
00256           -6560.00
00257           -6560.00
00258           -6560.00
00259           -6480.00
00260           -6560.00
00261           -6480.00
00262           -6480.00
00263           -6480.00
00264           -6480.00
00265           -6560.00
00266           -6480.00
00267           -6480.00
00268           -6320.00
00269           -6400.00
00270           -6320.00
00271           -6320.00
00272           -6320.00
00273           -6240.00
00274           -6320.00
00275           -6240.00
00276           -6240.00
00277           -6240.00
00278           -6240.00
00279           -6160.00
00280           -6240.00
00281           -6160.00
00282           -6160.00
00283           -6080.00
00284           -6160.00
00285           -6000.00
00286           -6000.00
00287           -6000.00
00288           -5920.00
00289           -6000.00
00290           -5920.00
00291           -5920.00
00292           -5920.00
00293           -5920.00
00294           -5920.00
00295           -5840.00
00296           -5840.00
00297           -5840.00
00298           -5840.00
00299           -5680.00
00300           -5600.00
00301           -5680.00
00302           -5600.00
00303           -5600.00
00304           -5600.00
00305           -5600.00
00306           -5600.00
00307           -5520.00
00308           -5440.00
00309           -5520.00
00310           -5520.00
00311           -5360.00
00312           -5360.00
00313           -5360.00
00314           -5360.00
00315           -5360.00
00316           -5280.00
00317           -5360.00
00318           -5200.00
00319           -5280.00
00320           -5200.00
00321           -5200.00
00322           -5200.00
00323           -5040.00
00324           -5040.00
00325           -5040.00
00326           -5040.00
00327           -5040.00
00328           -4960.00
00329           -4960.00
00330           -4960.00
00331           -4880.00
00332           -4880.00
00333           -4880.00
00334           -4800.00
00335           -4720.00
00336           -4720.00
00337           -4640.00
00338           -4720.00
00339           -4640.00
00340           -4640.00
00341           -4560.00
00342           -4560.00
00343           -4480.00
00344           -4400.00
00345           -4400.00
00346           -4320.00
00347           -4320.00
00348           -4320.00
00349           -4240.00
00350           -4320.00
00351           -4240.00
00352           -4160.00
00353           -4080.00
00354           -4080.00
00355           -4080.00
00356           -4080.00
00357           -4000.00
00358           -4000.00
00359           -3920.00
00360           -3920.00
00361           -3920.00
00362           -3760.00
00363           -3760.00
00364           -3760.00
00365           -3680.00
00366           -3680.00
00367           -3600.00
00368           -3600.00
00369           -3520.00
00370           -3600.00
00371           -3440.00
00372           -3440.00
00373           -3440.00
00374           -3360.00
00375           -3440.00
00376           -3280.00
00377           -3280.00
00378           -3280.00
00379           -3120.00
00380           -3120.00
00381           -3040.00
00382           -3120.00
00383           -3040.00
00384           -3040.00
00385           -3040.00
00386           -2960.00
00387           -2960.00
00388           -2800.00
00389           -2800.00
00390           -2800.00
00391           -2800.00
00392           -2800.00
00393           -2720.00
00394           -2640.00
00395           -2560.00
00396           -2560.00
00397           -2560.00
00398           -2480.00
00399           -2480.00
00400           -2400.00
00401           -2400.00
00402           -2400.00
00403           -2320.00
00404           -2240.00
00405           -2160.00
00406           -2160.00
00407           -2080.00
00408           -2080.00
00409           -2080.00
00410           -2000.00
00411           -2000.00
00412           -1920.00
00413           -1840.00
00414           -1840.00
00415           -1840.00
00416           -1760.00
00417           -1760.00
00418           -1680.00
00419           -1680.00
00420           -1520.00
00421           -1520.00
00422           -1520.00
00423           -1440.00
00424           -1440.00
00425           -1440.00
00426           -1360.00
00427           -1360.00
00428           -1200.00
00429           -1200.00
00430           -1200.00
00431           -1120.00
00432           -1120.00
00433           -1040.00
00434            -960.00
00435            -960.00
00436            -880.00
00437            -880.00
00438            -800.00
00439            -800.00
00440            -800.00
00441            -720.00
00442            -720.00
00443            -560.00
00444            -560.00
00445            -480.00
00446            -480.00
00447            -480.00
00448            -480.00
00449            -400.00
00450            -400.00
00451            -240.00
00452            -240.00
00453            -240.00
00454            -240.00
00455            -160.00
00456             -80.00
00457             -80.00
00458              80.00
00459               0.00
00460              80.00
00461             160.00
00462             160.00
00463             160.00
00464             240.00
00465             240.00
00466             240.00
00467             320.00
00468             400.00
00469             480.00
00470             480.00
00471             480.00
00472             560.00
00473             720.00
00474             720.00
00475             720.00
00476             800.00
00477             800.00
00478             800.00
00479             880.00
00480             960.00
00481            1040.00
00482            1040.00
00483            1040.00
00484            1120.00
00485            1120.00
00486            1200.00
00487            1200.00
00488            1280.00
00489            1360.00
00490            1360.00
00491            1360.00
00492            1440.00
00493            1440.00
00494            1520.00
00495            1520.00
00496            1680.00
00497            1680.00
00498            1680.00
00499            1760.00
00500            1840.00
00501            1840.00
00502            1920.00
00503            2000.00
00504            2000.00
00505            2000.00
00506            2080.00
00507            2080.00
00508            2160.00
00509            2240.00
00510            2160.00
00511            2320.00
00512            2320.00
00513            2400.00
00514            2320.00
00515            2400.00
00516            2480.00
00517            2560.00
00518            2640.00
00519            2640.00
00520            2640.00
00521            2640.00
00522            2720.00
00523            2720.00
00524            2720.00
00525            2800.00
00526            2800.00
00527            2800.00
00528            2960.00
00529            2960.00
00530            2960.00
00531            3040.00
00532            3120.00
00533            3120.00
00534            3120.00
00535            3280.00
00536            3280.00
00537            3280.00
00538            3360.00
00539            3360.00
00540            3360.00
00541            3440.00
00542            3440.00
00543            3440.00
00544            3600.00
00545            3600.00
00546            3600.00
00547            3600.00
00548            3680.00
00549            3680.00
00550            3840.00
00551            3840.00
00552            3920.00
00553            3920.00
00554            3920.00
00555            4000.00
00556            4000.00
00557            4000.00
00558            4000.00
00559            4080.00
00560            4080.00
00561            4240.00
00562            4240.00
00563            4240.00
00564            4320.00
00565            4320.00
00566            4320.00
00567            4320.00
00568            4400.00
00569            4400.00
00570            4560.00
00571            4560.00
00572            4560.00
00573            4560.00
00574            4640.00
00575            4640.00
00576            4720.00
00577            4720.00
00578            4720.00
00579            4720.00
00580            4880.00
00581            4880.00
00582            4880.00
00583            4960.00
00584            4880.00
00585            4960.00
00586            4960.00
00587            4960.00
00588            5040.00
00589            4960.00
00590            5040.00
00591            5120.00
00592            5120.00
00593            5200.00
00594            5280.00
00595            5280.00
00596            5280.00
00597            5280.00
00598            5280.00
00599            5360.00
00600            5360.00
00601            5360.00
00602            5520.00
00603            5440.00
00604            5520.00
00605            5520.00
00606            5520.00
00607            5520.00
00608            5600.00
00609            5600.00
00610            5600.00
00611            5680.00
00612            5680.00
00613            5760.00
00614            5840.00
00615            5840.00
00616            5840.00
00617            5840.00
00618            5840.00
00619            5840.00
00620            5920.00
00621            5920.00
00622            5920.00
00623            6000.00
00624            6000.00
00625            6000.00
00626            6000.00
00627            6160.00
00628            6000.00
00629            6160.00
00630            6160.00
00631            6160.00
00632            6160.00
00633            6240.00
00634            6160.00
00635            6240.00
00636            6160.00
00637            6320.00
00638            6240.00
00639            6320.00
00640            6320.00
00641            6320.00
00642            6320.00
00643            6320.00
00644            6400.00
00645            6400.00
00646            6480.00
00647            6480.00
00648            6480.00
00649            6480.00
00650            6480.00
00651            6480.00
00652            6480.00
00653            6560.00
00654            6560.00
00655            6560.00
00656            6560.00
00657            6560.00
00658            6560.00
00659            6560.00
00660            6640.00
00661            6640.00
00662            6560.00
00663            6640.00
00664            6720.00
00665            6640.00
00666            6640.00
00667            6800.00
00668            6800.00
00669            6800.00
00670            6800.00
00671            6800.00
00672            6800.00
00673            6800.00
00674            6800.00
00675            6800.00
00676            6800.00
00677            6800.00
00678            6800.00
00679            6880.00
00680            6880.00
00681            6880.00
00682            6800.00
00683            6880.00
00684            6880.00
00685            6880.00
00686            6800.00
00687            6880.00
00688            6880.00
00689            6880.00
00690            6880.00
00691            6880.00
00692            6960.00
00693            6880.00
00694            6960.00
00695            6960.00
00696            6880.00
00697            6960.00
00698            6960.00
00699            6960.00
00700            6880.00
00701            6960.00
00702            6960.00
00703            6960.00
00704            6880.00
00705            6960.00
00706            6960.00
00707            6960.00
00708            6960.00
00709            6960.00
00710            6960.00
00711            6960.00
00712            6960.00
00713            6960.00
00714            6960.00
00715            6960.00
00716            6960.00
00717            6880.00
00718            6960.00
00719            6880.00
00720            6880.00
00721            6960.00
00722            6960.00
00723            6960.00
00724            6960.00
00725            6880.00
00726            6960.00
00727            6880.00
00728            6880.00
00729            6880.00
00730            6960.00
00731            6880.00
00732            6880.00
00733            6880.00
00734            6800.00
00735            6880.00
00736            6880.00
00737            6880.00
00738            6880.00
00739            6880.00
00740            6880.00
00741            6880.00
00742            6800.00
00743            6880.00
00744            6800.00
00745            6800.00
00746            6800.00
00747            6800.00
00748            6800.00
00749            6800.00
00750            6800.00
00751            6800.00
00752            6800.00
00753            6800.00
00754            6720.00
00755            6720.00
00756            6800.00
00757            6800.00
00758            6720.00
00759            6640.00
00760            6640.00
00761            6640.00
00762            6640.00
00763            6640.00
00764            6640.00
00765            6560.00
00766            6640.00
