Unit:(mV)
                     CH1
Frequency     98.119 kHz
00001           -2640.00
00002           -2720.00
00003           -2720.00
00004           -2720.00
00005           -2800.00
00006           -2800.00
00007           -2960.00
00008           -2960.00
00009           -3040.00
00010           -3040.00
00011           -3120.00
00012           -3120.00
00013           -3200.00
00014           -3280.00
00015           -3280.00
00016           -3440.00
00017           -3440.00
00018           -3440.00
00019           -3440.00
00020           -3440.00
00021           -3600.00
00022           -3680.00
00023           -3680.00
00024           -3680.00
00025           -3760.00
00026           -3760.00
00027           -3920.00
00028           -3920.00
00029           -4000.00
00030           -3920.00
00031           -4080.00
00032           -4080.00
00033           -4080.00
00034           -4080.00
00035           -4240.00
00036           -4240.00
00037           -4240.00
00038           -4320.00
00039           -4400.00
00040           -4400.00
00041           -4400.00
00042           -4480.00
00043           -4560.00
00044           -4560.00
00045           -4640.00
00046           -4640.00
00047           -4720.00
00048           -4720.00
00049           -4880.00
00050           -4720.00
00051           -4880.00
00052           -4960.00
00053           -4880.00
00054           -4960.00
00055           -5040.00
00056           -5040.00
00057           -5120.00
00058           -5120.00
00059           -5200.00
00060           -5200.00
00061           -5280.00
00062           -5360.00
00063           -5360.00
00064           -5520.00
00065           -5360.00
00066           -5440.00
00067           -5520.00
00068           -5520.00
00069           -5600.00
00070           -5600.00
00071           -5600.00
00072           -5680.00
00073           -5760.00
00074           -5840.00
00075           -5920.00
00076           -5920.00
00077           -5920.00
00078           -5920.00
00079           -6000.00
00080           -6000.00
00081           -6000.00
00082           -6000.00
00083           -6080.00
00084           -6160.00
00085           -6160.00
00086           -6240.00
00087           -6240.00
00088           -6240.00
00089           -6320.00
00090           -6320.00
00091           -6320.00
00092           -6480.00
00093           -6400.00
00094           -6560.00
00095           -6480.00
00096           -6560.00
00097           -6560.00
00098           -6640.00
00099           -6640.00
00100           -6640.00
00101           -6720.00
00102           -6720.00
00103           -6800.00
00104           -6720.00
00105           -6800.00
00106           -6800.00
00107           -6880.00
00108           -6880.00
00109           -6960.00
00110           -6880.00
00111           -6960.00
00112           -6960.00
00113           -6960.00
00114           -7040.00
00115           -7040.00
00116           -7120.00
00117           -7120.00
00118           -7120.00
00119           -7200.00
00120           -7200.00
00121           -7200.00
00122           -7280.00
00123           -7280.00
00124           -7280.00
00125           -7280.00
00126           -7280.00
00127           -7440.00
00128           -7440.00
00129           -7440.00
00130           -7440.00
00131           -7520.00
00132           -7440.00
00133           -7600.00
00134           -7520.00
00135           -7520.00
00136           -7520.00
00137           -7520.00
00138           -7600.00
00139           -7680.00
00140           -7600.00
00141           -7600.00
00142           -7760.00
00143           -7760.00
00144           -7760.00
00145           -7760.00
00146           -7840.00
00147           -7760.00
00148           -7840.00
00149           -7840.00
00150           -7840.00
00151           -7920.00
00152           -7840.00
00153           -7920.00
00154           -7920.00
00155           -7920.00
00156           -7920.00
00157           -7920.00
00158           -7920.00
00159           -7920.00
00160           -7920.00
00161           -7920.00
00162           -8000.00
00163           -8080.00
00164           -8080.00
00165           -7920.00
00166           -8080.00
00167           -8080.00
00168           -8080.00
00169           -8080.00
00170           -8080.00
00171           -8080.00
00172           -8080.00
00173           -8160.00
00174           -8160.00
00175           -8160.00
00176           -8160.00
00177           -8160.00
00178           -8160.00
00179           -8160.00
00180           -8160.00
00181           -8160.00
00182           -8160.00
00183           -8160.00
00184           -8160.00
00185           -8160.00
00186           -8240.00
00187           -8240.00
00188           -8160.00
00189           -8160.00
00190           -8160.00
00191           -8240.00
00192           -8240.00
00193           -8160.00
00194           -8240.00
00195           -8160.00
00196           -8160.00
00197           -8240.00
00198           -8240.00
00199           -8240.00
00200           -8240.00
00201           -8240.00
00202           -8240.00
00203           -8240.00
00204           -8320.00
00205           -8240.00
00206           -8240.00
00207           -8320.00
00208           -8240.00
00209           -8240.00
00210           -8240.00
00211           -8240.00
00212           -8320.00
00213           -8240.00
00214           -8240.00
00215           -8240.00
00216           -8240.00
00217           -8240.00
00218           -8240.00
00219           -8240.00
00220           -8160.00
00221           -8240.00
00222           -8160.00
00223           -8160.00
00224           -8160.00
00225           -8160.00
00226           -8240.00
00227           -8160.00
00228           -8160.00
00229           -8160.00
00230           -8160.00
00231           -8160.00
00232           -8160.00
00233           -8160.00
00234           -8080.00
00235           -8160.00
00236           -8080.00
00237           -8080.00
00238           -8080.00
00239           -8080.00
00240           -8080.00
00241           -8080.00
00242           -8080.00
00243           -7920.00
00244           -7920.00
00245           -7920.00
00246           -7920.00
00247           -7920.00
00248           -7920.00
00249           -7920.00
00250           -7920.00
00251           -7920.00
00252           -7840.00
00253           -7840.00
00254           -7840.00
00255           -7920.00
00256           -7840.00
00257           -7760.00
00258           -7760.00
00259           -7840.00
00260           -7760.00
00261           -7760.00
00262           -7760.00
00263           -7760.00
00264           -7760.00
00265           -7600.00
00266           -7680.00
00267           -7600.00
00268           -7600.00
00269           -7600.00
00270           -7520.00
00271           -7520.00
00272           -7520.00
00273           -7520.00
00274           -7520.00
00275           -7520.00
00276           -7440.00
00277           -7440.00
00278           -7440.00
00279           -7440.00
00280           -7280.00
00281           -7360.00
00282           -7280.00
00283           -7280.00
00284           -7280.00
00285           -7200.00
00286           -7280.00
00287           -7200.00
00288           -7200.00
00289           -7200.00
00290           -7120.00
00291           -7120.00
00292           -7120.00
00293           -6960.00
00294           -6960.00
00295           -6960.00
00296           -6880.00
00297           -6880.00
00298           -6880.00
00299           -6880.00
00300           -6880.00
00301           -6800.00
00302           -6800.00
00303           -6800.00
00304           -6640.00
00305           -6640.00
00306           -6640.00
00307           -6560.00
00308           -6560.00
00309           -6480.00
00310           -6560.00
00311           -6480.00
00312           -6480.00
00313           -6320.00
00314           -6320.00
00315           -6320.00
00316           -6320.00
00317           -6320.00
00318           -6240.00
00319           -6240.00
00320           -6160.00
00321           -6160.00
00322           -6160.00
00323           -6080.00
00324           -6000.00
00325           -6000.00
00326           -5920.00
00327           -5920.00
00328           -5920.00
00329           -5840.00
00330           -5840.00
00331           -5840.00
00332           -5760.00
00333           -5760.00
00334           -5680.00
00335           -5680.00
00336           -5600.00
00337           -5600.00
00338           -5600.00
00339           -5520.00
00340           -5520.00
00341           -5520.00
00342           -5360.00
00343           -5360.00
00344           -5360.00
00345           -5360.00
00346           -5280.00
00347           -5280.00
00348           -5200.00
00349           -5200.00
00350           -5120.00
00351           -4960.00
00352           -5040.00
00353           -4960.00
00354           -4960.00
00355           -4960.00
00356           -4880.00
00357           -4800.00
00358           -4880.00
00359           -4720.00
00360           -4640.00
00361           -4640.00
00362           -4640.00
00363           -4560.00
00364           -4560.00
00365           -4400.00
00366           -4400.00
00367           -4320.00
00368           -4320.00
00369           -4320.00
00370           -4240.00
00371           -4240.00
00372           -4160.00
00373           -4080.00
00374           -4080.00
00375           -4000.00
00376           -4080.00
00377           -3920.00
00378           -3920.00
00379           -3760.00
00380           -3760.00
00381           -3680.00
00382           -3680.00
00383           -3680.00
00384           -3600.00
00385           -3680.00
00386           -3440.00
00387           -3440.00
00388           -3440.00
00389           -3360.00
00390           -3360.00
00391           -3280.00
00392           -3280.00
00393           -3280.00
00394           -3120.00
00395           -3120.00
00396           -3120.00
00397           -3040.00
00398           -3040.00
00399           -2960.00
00400           -2960.00
00401           -2960.00
00402           -2800.00
00403           -2800.00
00404           -2720.00
00405           -2640.00
00406           -2640.00
00407           -2640.00
00408           -2480.00
00409           -2480.00
00410           -2480.00
00411           -2400.00
00412           -2320.00
00413           -2320.00
00414           -2160.00
00415           -2160.00
00416           -2160.00
00417           -2080.00
00418           -2080.00
00419           -2000.00
00420           -1920.00
00421           -1840.00
00422           -1840.00
00423           -1760.00
00424           -1760.00
00425           -1680.00
00426           -1520.00
00427           -1680.00
00428           -1520.00
00429           -1520.00
00430           -1440.00
00431           -1360.00
00432           -1360.00
00433           -1200.00
00434           -1200.00
00435           -1120.00
00436           -1120.00
00437           -1120.00
00438           -1040.00
00439            -880.00
00440            -880.00
00441            -880.00
00442            -880.00
00443            -800.00
00444            -720.00
00445            -640.00
00446            -560.00
00447            -480.00
00448            -560.00
00449            -480.00
00450            -400.00
00451            -400.00
00452            -320.00
00453            -240.00
00454            -240.00
00455            -160.00
00456            -160.00
00457             -80.00
00458               0.00
00459              80.00
00460             160.00
00461             160.00
00462             160.00
00463             240.00
00464             240.00
00465             400.00
00466             320.00
00467             400.00
00468             400.00
00469             560.00
00470             560.00
00471             720.00
00472             720.00
00473             720.00
00474             800.00
00475             800.00
00476             880.00
00477             880.00
00478             960.00
00479            1040.00
00480            1040.00
00481            1120.00
00482            1200.00
00483            1200.00
00484            1200.00
00485            1360.00
00486            1440.00
00487            1440.00
00488            1440.00
00489            1520.00
00490            1520.00
00491            1680.00
00492            1680.00
00493            1760.00
00494            1840.00
00495            1840.00
00496            1840.00
00497            2000.00
00498            2000.00
00499            2080.00
00500            2080.00
00501            2160.00
00502            2160.00
00503            2320.00
00504            2320.00
00505            2320.00
00506            2320.00
00507            2400.00
00508            2480.00
00509            2480.00
00510            2640.00
00511            2640.00
00512            2720.00
00513            2720.00
00514            2800.00
00515            2800.00
00516            2960.00
00517            2960.00
00518            2960.00
00519            3040.00
00520            3120.00
00521            3120.00
00522            3280.00
00523            3280.00
00524            3280.00
00525            3280.00
00526            3360.00
00527            3360.00
00528            3440.00
00529            3440.00
00530            3520.00
00531            3600.00
00532            3600.00
00533            3680.00
00534            3760.00
00535            3760.00
00536            3840.00
00537            3920.00
00538            3920.00
00539            3920.00
00540            4000.00
00541            4000.00
00542            4080.00
00543            4080.00
00544            4240.00
00545            4240.00
00546            4240.00
00547            4320.00
00548            4320.00
00549            4320.00
00550            4480.00
00551            4480.00
00552            4560.00
00553            4560.00
00554            4640.00
00555            4640.00
00556            4720.00
00557            4800.00
00558            4880.00
00559            4880.00
00560            4880.00
00561            4880.00
00562            4880.00
00563            4960.00
00564            5040.00
00565            5040.00
00566            5200.00
00567            5200.00
00568            5200.00
00569            5280.00
00570            5280.00
00571            5360.00
00572            5360.00
00573            5360.00
00574            5520.00
00575            5520.00
00576            5520.00
00577            5600.00
00578            5680.00
00579            5600.00
00580            5680.00
00581            5680.00
00582            5840.00
00583            5840.00
00584            5840.00
00585            5840.00
00586            5920.00
00587            5920.00
00588            5920.00
00589            6000.00
00590            6000.00
00591            6160.00
00592            6080.00
00593            6160.00
00594            6160.00
00595            6160.00
00596            6160.00
00597            6320.00
00598            6320.00
00599            6320.00
00600            6480.00
00601            6480.00
00602            6400.00
00603            6480.00
00604            6480.00
00605            6560.00
00606            6560.00
00607            6560.00
00608            6640.00
00609            6640.00
00610            6720.00
00611            6720.00
00612            6800.00
00613            6800.00
00614            6800.00
00615            6800.00
00616            6880.00
00617            6880.00
00618            6880.00
00619            6960.00
00620            6960.00
00621            6960.00
00622            6960.00
00623            7120.00
00624            7120.00
00625            7120.00
00626            7200.00
00627            7200.00
00628            7200.00
00629            7200.00
00630            7280.00
00631            7280.00
00632            7280.00
00633            7440.00
00634            7360.00
00635            7440.00
00636            7440.00
00637            7440.00
00638            7440.00
00639            7440.00
00640            7520.00
00641            7520.00
00642            7520.00
00643            7520.00
00644            7520.00
00645            7600.00
00646            7600.00
00647            7760.00
00648            7600.00
00649            7600.00
00650            7760.00
00651            7680.00
00652            7760.00
00653            7760.00
00654            7760.00
00655            7840.00
00656            7840.00
00657            7760.00
00658            7840.00
00659            7840.00
00660            7840.00
00661            7840.00
00662            7840.00
00663            7840.00
00664            7920.00
00665            7920.00
00666            7920.00
00667            7920.00
00668            8000.00
00669            8000.00
00670            8000.00
00671            8000.00
00672            8080.00
00673            8080.00
00674            8080.00
00675            8080.00
00676            8080.00
00677            8080.00
00678            8080.00
00679            8080.00
00680            8080.00
00681            8080.00
00682            8160.00
00683            8160.00
00684            8160.00
00685            8160.00
00686            8160.00
00687            8160.00
00688            8240.00
00689            8160.00
00690            8240.00
00691            8160.00
00692            8160.00
00693            8240.00
00694            8160.00
00695            8240.00
00696            8240.00
00697            8240.00
00698            8240.00
00699            8240.00
00700            8240.00
00701            8320.00
00702            8240.00
00703            8240.00
00704            8240.00
00705            8400.00
00706            8320.00
00707            8240.00
00708            8400.00
00709            8240.00
00710            8400.00
00711            8400.00
00712            8240.00
00713            8400.00
00714            8320.00
00715            8240.00
00716            8240.00
00717            8240.00
00718            8240.00
00719            8240.00
00720            8400.00
00721            8320.00
00722            8320.00
00723            8400.00
00724            8320.00
00725            8240.00
00726            8240.00
00727            8240.00
00728            8240.00
00729            8160.00
00730            8240.00
00731            8160.00
00732            8240.00
00733            8160.00
00734            8240.00
00735            8160.00
00736            8160.00
00737            8160.00
00738            8160.00
00739            8160.00
00740            8160.00
00741            8160.00
00742            8160.00
00743            8080.00
00744            8160.00
00745            8160.00
00746            8080.00
00747            8080.00
00748            8080.00
00749            8080.00
00750            8080.00
00751            8080.00
00752            8080.00
00753            8080.00
00754            7920.00
00755            8080.00
00756            8000.00
00757            8080.00
00758            7920.00
00759            7920.00
00760            7840.00
00761            7920.00
00762            7840.00
00763            7840.00
00764            7840.00
00765            7840.00
00766            7840.00
