Unit:(mV)
                     CH1
Frequency     98.095 kHz
00001           -1680.00
00002           -1680.00
00003           -1680.00
00004           -1760.00
00005           -1760.00
00006           -1840.00
00007           -1840.00
00008           -1840.00
00009           -1840.00
00010           -1840.00
00011           -2000.00
00012           -2000.00
00013           -2000.00
00014           -2000.00
00015           -2080.00
00016           -2080.00
00017           -2080.00
00018           -2160.00
00019           -2160.00
00020           -2160.00
00021           -2240.00
00022           -2320.00
00023           -2320.00
00024           -2320.00
00025           -2320.00
00026           -2400.00
00027           -2400.00
00028           -2400.00
00029           -2480.00
00030           -2480.00
00031           -2480.00
00032           -2480.00
00033           -2480.00
00034           -2560.00
00035           -2640.00
00036           -2720.00
00037           -2720.00
00038           -2720.00
00039           -2720.00
00040           -2720.00
00041           -2720.00
00042           -2800.00
00043           -2800.00
00044           -2800.00
00045           -2880.00
00046           -2800.00
00047           -2960.00
00048           -2960.00
00049           -2960.00
00050           -2960.00
00051           -2960.00
00052           -3040.00
00053           -3040.00
00054           -3120.00
00055           -3120.00
00056           -3120.00
00057           -3120.00
00058           -3200.00
00059           -3280.00
00060           -3280.00
00061           -3360.00
00062           -3280.00
00063           -3360.00
00064           -3360.00
00065           -3360.00
00066           -3440.00
00067           -3440.00
00068           -3440.00
00069           -3440.00
00070           -3600.00
00071           -3520.00
00072           -3600.00
00073           -3600.00
00074           -3600.00
00075           -3680.00
00076           -3680.00
00077           -3680.00
00078           -3680.00
00079           -3680.00
00080           -3680.00
00081           -3760.00
00082           -3760.00
00083           -3760.00
00084           -3760.00
00085           -3760.00
00086           -3840.00
00087           -3920.00
00088           -3920.00
00089           -3920.00
00090           -3920.00
00091           -4000.00
00092           -3920.00
00093           -4000.00
00094           -4000.00
00095           -4000.00
00096           -4000.00
00097           -4000.00
00098           -4080.00
00099           -4080.00
00100           -4080.00
00101           -4080.00
00102           -4080.00
00103           -4160.00
00104           -4240.00
00105           -4160.00
00106           -4240.00
00107           -4240.00
00108           -4240.00
00109           -4240.00
00110           -4320.00
00111           -4320.00
00112           -4320.00
00113           -4320.00
00114           -4400.00
00115           -4400.00
00116           -4400.00
00117           -4400.00
00118           -4400.00
00119           -4400.00
00120           -4400.00
00121           -4400.00
00122           -4560.00
00123           -4400.00
00124           -4560.00
00125           -4560.00
00126           -4480.00
00127           -4640.00
00128           -4560.00
00129           -4560.00
00130           -4640.00
00131           -4640.00
00132           -4640.00
00133           -4640.00
00134           -4640.00
00135           -4640.00
00136           -4640.00
00137           -4720.00
00138           -4720.00
00139           -4720.00
00140           -4720.00
00141           -4720.00
00142           -4720.00
00143           -4800.00
00144           -4720.00
00145           -4880.00
00146           -4800.00
00147           -4880.00
00148           -4880.00
00149           -4880.00
00150           -4880.00
00151           -4880.00
00152           -4880.00
00153           -4880.00
00154           -4880.00
00155           -4960.00
00156           -4960.00
00157           -4960.00
00158           -4960.00
00159           -4960.00
00160           -4960.00
00161           -4960.00
00162           -4960.00
00163           -4960.00
00164           -4960.00
00165           -4960.00
00166           -4960.00
00167           -4960.00
00168           -4960.00
00169           -4960.00
00170           -4960.00
00171           -4960.00
00172           -4960.00
00173           -5040.00
00174           -5040.00
00175           -4960.00
00176           -4960.00
00177           -5040.00
00178           -5040.00
00179           -5040.00
00180           -5040.00
00181           -5040.00
00182           -5040.00
00183           -5040.00
00184           -5040.00
00185           -5040.00
00186           -5040.00
00187           -4960.00
00188           -5040.00
00189           -5040.00
00190           -5040.00
00191           -5040.00
00192           -5040.00
00193           -5040.00
00194           -5040.00
00195           -5040.00
00196           -5040.00
00197           -5040.00
00198           -5120.00
00199           -5040.00
00200           -5040.00
00201           -5120.00
00202           -5040.00
00203           -5040.00
00204           -5120.00
00205           -5040.00
00206           -5040.00
00207           -5200.00
00208           -5040.00
00209           -5040.00
00210           -5040.00
00211           -5040.00
00212           -5040.00
00213           -5120.00
00214           -5120.00
00215           -5040.00
00216           -5120.00
00217           -5040.00
00218           -5040.00
00219           -5040.00
00220           -5040.00
00221           -5040.00
00222           -5040.00
00223           -5040.00
00224           -5040.00
00225           -5040.00
00226           -5040.00
00227           -5040.00
00228           -5040.00
00229           -5040.00
00230           -5040.00
00231           -5040.00
00232           -4960.00
00233           -4960.00
00234           -4960.00
00235           -4960.00
00236           -4960.00
00237           -4960.00
00238           -4960.00
00239           -4960.00
00240           -4960.00
00241           -4960.00
00242           -4960.00
00243           -4960.00
00244           -4880.00
00245           -4960.00
00246           -4960.00
00247           -4960.00
00248           -4880.00
00249           -4880.00
00250           -4880.00
00251           -4880.00
00252           -4880.00
00253           -4720.00
00254           -4720.00
00255           -4800.00
00256           -4720.00
00257           -4720.00
00258           -4800.00
00259           -4720.00
00260           -4720.00
00261           -4720.00
00262           -4720.00
00263           -4720.00
00264           -4720.00
00265           -4720.00
00266           -4720.00
00267           -4720.00
00268           -4640.00
00269           -4640.00
00270           -4640.00
00271           -4640.00
00272           -4640.00
00273           -4640.00
00274           -4640.00
00275           -4640.00
00276           -4560.00
00277           -4560.00
00278           -4560.00
00279           -4560.00
00280           -4560.00
00281           -4560.00
00282           -4560.00
00283           -4480.00
00284           -4400.00
00285           -4400.00
00286           -4400.00
00287           -4400.00
00288           -4400.00
00289           -4400.00
00290           -4320.00
00291           -4320.00
00292           -4320.00
00293           -4320.00
00294           -4320.00
00295           -4320.00
00296           -4240.00
00297           -4240.00
00298           -4240.00
00299           -4160.00
00300           -4080.00
00301           -4160.00
00302           -4080.00
00303           -4080.00
00304           -4080.00
00305           -4080.00
00306           -4080.00
00307           -4000.00
00308           -4080.00
00309           -4000.00
00310           -4000.00
00311           -4000.00
00312           -4000.00
00313           -3920.00
00314           -3920.00
00315           -3920.00
00316           -3920.00
00317           -3840.00
00318           -3840.00
00319           -3760.00
00320           -3760.00
00321           -3760.00
00322           -3760.00
00323           -3680.00
00324           -3760.00
00325           -3680.00
00326           -3680.00
00327           -3680.00
00328           -3680.00
00329           -3680.00
00330           -3680.00
00331           -3600.00
00332           -3600.00
00333           -3440.00
00334           -3520.00
00335           -3440.00
00336           -3440.00
00337           -3440.00
00338           -3440.00
00339           -3440.00
00340           -3360.00
00341           -3360.00
00342           -3360.00
00343           -3360.00
00344           -3280.00
00345           -3280.00
00346           -3280.00
00347           -3200.00
00348           -3280.00
00349           -3120.00
00350           -3120.00
00351           -3120.00
00352           -3040.00
00353           -3040.00
00354           -3040.00
00355           -2960.00
00356           -2960.00
00357           -2960.00
00358           -2960.00
00359           -2960.00
00360           -2960.00
00361           -2800.00
00362           -2800.00
00363           -2800.00
00364           -2720.00
00365           -2720.00
00366           -2720.00
00367           -2720.00
00368           -2640.00
00369           -2640.00
00370           -2640.00
00371           -2480.00
00372           -2640.00
00373           -2480.00
00374           -2480.00
00375           -2480.00
00376           -2480.00
00377           -2480.00
00378           -2400.00
00379           -2320.00
00380           -2400.00
00381           -2320.00
00382           -2320.00
00383           -2240.00
00384           -2160.00
00385           -2160.00
00386           -2080.00
00387           -2080.00
00388           -2080.00
00389           -2080.00
00390           -2080.00
00391           -2080.00
00392           -2000.00
00393           -2000.00
00394           -2000.00
00395           -2000.00
00396           -1840.00
00397           -1840.00
00398           -1840.00
00399           -1840.00
00400           -1760.00
00401           -1760.00
00402           -1760.00
00403           -1680.00
00404           -1680.00
00405           -1680.00
00406           -1600.00
00407           -1520.00
00408           -1520.00
00409           -1520.00
00410           -1440.00
00411           -1440.00
00412           -1440.00
00413           -1440.00
00414           -1360.00
00415           -1360.00
00416           -1280.00
00417           -1200.00
00418           -1200.00
00419           -1200.00
00420           -1200.00
00421           -1120.00
00422           -1120.00
00423           -1120.00
00424           -1040.00
00425           -1040.00
00426            -960.00
00427            -960.00
00428            -960.00
00429            -880.00
00430            -880.00
00431            -800.00
00432            -800.00
00433            -800.00
00434            -800.00
00435            -720.00
00436            -720.00
00437            -560.00
00438            -560.00
00439            -560.00
00440            -480.00
00441            -480.00
00442            -480.00
00443            -480.00
00444            -400.00
00445            -400.00
00446            -400.00
00447            -240.00
00448            -320.00
00449            -240.00
00450            -240.00
00451            -160.00
00452            -160.00
00453            -160.00
00454             -80.00
00455             -80.00
00456             -80.00
00457              80.00
00458             -80.00
00459             -80.00
00460              80.00
00461              80.00
00462              80.00
00463              80.00
00464             160.00
00465             160.00
00466             240.00
00467             320.00
00468             240.00
00469             240.00
00470             240.00
00471             400.00
00472             480.00
00473             480.00
00474             400.00
00475             480.00
00476             560.00
00477             560.00
00478             640.00
00479             720.00
00480             720.00
00481             720.00
00482             720.00
00483             800.00
00484             800.00
00485             800.00
00486             880.00
00487             960.00
00488             880.00
00489            1040.00
00490            1040.00
00491            1040.00
00492            1040.00
00493            1120.00
00494            1120.00
00495            1120.00
00496            1120.00
00497            1280.00
00498            1360.00
00499            1360.00
00500            1280.00
00501            1360.00
00502            1360.00
00503            1440.00
00504            1440.00
00505            1520.00
00506            1440.00
00507            1520.00
00508            1520.00
00509            1600.00
00510            1520.00
00511            1680.00
00512            1680.00
00513            1760.00
00514            1760.00
00515            1760.00
00516            1760.00
00517            1840.00
00518            1840.00
00519            1920.00
00520            1840.00
00521            2000.00
00522            2000.00
00523            2080.00
00524            2080.00
00525            2080.00
00526            2080.00
00527            2160.00
00528            2080.00
00529            2160.00
00530            2160.00
00531            2240.00
00532            2320.00
00533            2320.00
00534            2320.00
00535            2320.00
00536            2320.00
00537            2320.00
00538            2400.00
00539            2480.00
00540            2480.00
00541            2480.00
00542            2640.00
00543            2480.00
00544            2640.00
00545            2640.00
00546            2640.00
00547            2720.00
00548            2720.00
00549            2720.00
00550            2720.00
00551            2720.00
00552            2800.00
00553            2800.00
00554            2800.00
00555            2960.00
00556            2960.00
00557            3040.00
00558            2960.00
00559            2960.00
00560            2960.00
00561            3120.00
00562            3120.00
00563            3120.00
00564            3120.00
00565            3120.00
00566            3200.00
00567            3280.00
00568            3280.00
00569            3280.00
00570            3280.00
00571            3360.00
00572            3360.00
00573            3360.00
00574            3360.00
00575            3360.00
00576            3360.00
00577            3440.00
00578            3520.00
00579            3520.00
00580            3600.00
00581            3520.00
00582            3600.00
00583            3600.00
00584            3600.00
00585            3600.00
00586            3680.00
00587            3680.00
00588            3680.00
00589            3680.00
00590            3680.00
00591            3760.00
00592            3760.00
00593            3760.00
00594            3920.00
00595            3920.00
00596            3840.00
00597            3840.00
00598            3920.00
00599            3920.00
00600            3920.00
00601            4000.00
00602            3920.00
00603            4000.00
00604            4000.00
00605            4000.00
00606            4080.00
00607            4000.00
00608            4080.00
00609            4080.00
00610            4160.00
00611            4080.00
00612            4240.00
00613            4240.00
00614            4240.00
00615            4240.00
00616            4240.00
00617            4320.00
00618            4240.00
00619            4320.00
00620            4320.00
00621            4320.00
00622            4320.00
00623            4320.00
00624            4400.00
00625            4320.00
00626            4400.00
00627            4400.00
00628            4400.00
00629            4480.00
00630            4480.00
00631            4480.00
00632            4560.00
00633            4560.00
00634            4560.00
00635            4640.00
00636            4560.00
00637            4640.00
00638            4640.00
00639            4640.00
00640            4640.00
00641            4640.00
00642            4640.00
00643            4640.00
00644            4720.00
00645            4640.00
00646            4720.00
00647            4720.00
00648            4720.00
00649            4720.00
00650            4720.00
00651            4720.00
00652            4880.00
00653            4720.00
00654            4720.00
00655            4880.00
00656            4880.00
00657            4880.00
00658            4800.00
00659            4880.00
00660            4880.00
00661            4880.00
00662            4880.00
00663            4880.00
00664            4880.00
00665            4880.00
00666            4880.00
00667            4960.00
00668            4880.00
00669            4880.00
00670            4960.00
00671            4880.00
00672            4960.00
00673            4960.00
00674            4960.00
00675            5040.00
00676            4960.00
00677            4960.00
00678            4960.00
00679            5040.00
00680            4960.00
00681            4960.00
00682            5040.00
00683            5040.00
00684            4960.00
00685            4960.00
00686            5040.00
00687            5040.00
00688            5040.00
00689            5040.00
00690            5040.00
00691            5040.00
00692            5040.00
00693            5120.00
00694            5040.00
00695            5120.00
00696            5200.00
00697            5200.00
00698            5120.00
00699            5120.00
00700            5200.00
00701            5120.00
00702            5200.00
00703            5040.00
00704            5200.00
00705            5200.00
00706            5120.00
00707            5200.00
00708            5040.00
00709            5200.00
00710            5200.00
00711            5200.00
00712            5120.00
00713            5200.00
00714            5200.00
00715            5200.00
00716            5040.00
00717            5040.00
00718            5040.00
00719            5040.00
00720            5200.00
00721            5040.00
00722            5120.00
00723            5040.00
00724            5040.00
00725            5040.00
00726            5200.00
00727            5040.00
00728            5040.00
00729            5040.00
00730            5040.00
00731            5040.00
00732            5040.00
00733            5040.00
00734            5040.00
00735            4960.00
00736            4960.00
00737            5040.00
00738            4960.00
00739            4960.00
00740            5040.00
00741            4960.00
00742            5040.00
00743            4960.00
00744            5040.00
00745            4960.00
00746            4960.00
00747            4960.00
00748            4960.00
00749            4960.00
00750            4960.00
00751            4880.00
00752            4960.00
00753            4880.00
00754            4960.00
00755            4960.00
00756            4960.00
00757            4880.00
00758            4960.00
00759            4880.00
00760            4880.00
00761            4880.00
00762            4880.00
00763            4880.00
00764            4880.00
00765            4880.00
00766            4880.00
