Unit:(mV)
                     CH1
Frequency     98.107 kHz
00001            -560.00
00002            -560.00
00003            -640.00
00004            -640.00
00005            -720.00
00006            -640.00
00007            -720.00
00008            -720.00
00009            -720.00
00010            -720.00
00011            -720.00
00012            -800.00
00013            -800.00
00014            -720.00
00015            -800.00
00016            -800.00
00017            -800.00
00018            -800.00
00019            -800.00
00020            -800.00
00021            -800.00
00022            -880.00
00023            -880.00
00024            -880.00
00025            -880.00
00026            -880.00
00027            -880.00
00028            -880.00
00029            -880.00
00030            -880.00
00031           -1040.00
00032            -880.00
00033            -880.00
00034            -960.00
00035            -880.00
00036           -1040.00
00037            -960.00
00038           -1040.00
00039           -1040.00
00040           -1040.00
00041           -1040.00
00042           -1040.00
00043           -1120.00
00044           -1120.00
00045           -1040.00
00046           -1120.00
00047           -1040.00
00048           -1120.00
00049           -1120.00
00050           -1120.00
00051           -1120.00
00052           -1120.00
00053           -1120.00
00054           -1120.00
00055           -1200.00
00056           -1200.00
00057           -1120.00
00058           -1200.00
00059           -1200.00
00060           -1200.00
00061           -1360.00
00062           -1200.00
00063           -1360.00
00064           -1200.00
00065           -1280.00
00066           -1280.00
00067           -1360.00
00068           -1280.00
00069           -1360.00
00070           -1440.00
00071           -1360.00
00072           -1360.00
00073           -1360.00
00074           -1360.00
00075           -1440.00
00076           -1440.00
00077           -1360.00
00078           -1360.00
00079           -1360.00
00080           -1440.00
00081           -1440.00
00082           -1440.00
00083           -1440.00
00084           -1440.00
00085           -1440.00
00086           -1440.00
00087           -1440.00
00088           -1520.00
00089           -1440.00
00090           -1520.00
00091           -1440.00
00092           -1520.00
00093           -1520.00
00094           -1520.00
00095           -1520.00
00096           -1520.00
00097           -1520.00
00098           -1520.00
00099           -1600.00
00100           -1520.00
00101           -1520.00
00102           -1520.00
00103           -1520.00
00104           -1520.00
00105           -1520.00
00106           -1520.00
00107           -1600.00
00108           -1680.00
00109           -1520.00
00110           -1600.00
00111           -1520.00
00112           -1680.00
00113           -1680.00
00114           -1520.00
00115           -1680.00
00116           -1600.00
00117           -1680.00
00118           -1680.00
00119           -1680.00
00120           -1680.00
00121           -1680.00
00122           -1680.00
00123           -1680.00
00124           -1760.00
00125           -1760.00
00126           -1760.00
00127           -1760.00
00128           -1760.00
00129           -1760.00
00130           -1760.00
00131           -1760.00
00132           -1760.00
00133           -1760.00
00134           -1760.00
00135           -1760.00
00136           -1760.00
00137           -1840.00
00138           -1840.00
00139           -1760.00
00140           -1840.00
00141           -1840.00
00142           -1760.00
00143           -1840.00
00144           -1760.00
00145           -1840.00
00146           -1760.00
00147           -1760.00
00148           -1840.00
00149           -1760.00
00150           -1840.00
00151           -1840.00
00152           -1840.00
00153           -1840.00
00154           -1840.00
00155           -1840.00
00156           -1840.00
00157           -1840.00
00158           -1840.00
00159           -1840.00
00160           -1840.00
00161           -1840.00
00162           -1840.00
00163           -1840.00
00164           -1920.00
00165           -1840.00
00166           -1840.00
00167           -1920.00
00168           -1840.00
00169           -1840.00
00170           -2000.00
00171           -1840.00
00172           -1840.00
00173           -1840.00
00174           -1840.00
00175           -1840.00
00176           -1840.00
00177           -1840.00
00178           -1920.00
00179           -1840.00
00180           -1920.00
00181           -1840.00
00182           -1840.00
00183           -1920.00
00184           -1920.00
00185           -1840.00
00186           -1920.00
00187           -1840.00
00188           -1840.00
00189           -2000.00
00190           -1920.00
00191           -1840.00
00192           -2000.00
00193           -1840.00
00194           -1840.00
00195           -2000.00
00196           -2000.00
00197           -2000.00
00198           -2000.00
00199           -1920.00
00200           -2000.00
00201           -2000.00
00202           -1920.00
00203           -2000.00
00204           -2000.00
00205           -2000.00
00206           -1920.00
00207           -2000.00
00208           -2000.00
00209           -2000.00
00210           -2000.00
00211           -1840.00
00212           -2000.00
00213           -1920.00
00214           -1920.00
00215           -2000.00
00216           -1920.00
00217           -2000.00
00218           -2000.00
00219           -1920.00
00220           -1840.00
00221           -2000.00
00222           -2000.00
00223           -1840.00
00224           -2000.00
00225           -2000.00
00226           -1840.00
00227           -1840.00
00228           -1920.00
00229           -1840.00
00230           -1840.00
00231           -1840.00
00232           -1840.00
00233           -1840.00
00234           -1840.00
00235           -1840.00
00236           -1840.00
00237           -1840.00
00238           -1840.00
00239           -1840.00
00240           -1840.00
00241           -1840.00
00242           -1840.00
00243           -1840.00
00244           -1840.00
00245           -1840.00
00246           -1840.00
00247           -1840.00
00248           -1840.00
00249           -1840.00
00250           -1840.00
00251           -1840.00
00252           -1840.00
00253           -1840.00
00254           -1840.00
00255           -1840.00
00256           -1760.00
00257           -1840.00
00258           -1840.00
00259           -1840.00
00260           -1840.00
00261           -1840.00
00262           -1760.00
00263           -1840.00
00264           -1840.00
00265           -1840.00
00266           -1840.00
00267           -1840.00
00268           -1760.00
00269           -1840.00
00270           -1840.00
00271           -1760.00
00272           -1760.00
00273           -1760.00
00274           -1760.00
00275           -1760.00
00276           -1760.00
00277           -1760.00
00278           -1760.00
00279           -1760.00
00280           -1760.00
00281           -1760.00
00282           -1760.00
00283           -1760.00
00284           -1760.00
00285           -1680.00
00286           -1760.00
00287           -1680.00
00288           -1760.00
00289           -1680.00
00290           -1680.00
00291           -1600.00
00292           -1680.00
00293           -1680.00
00294           -1680.00
00295           -1600.00
00296           -1520.00
00297           -1680.00
00298           -1520.00
00299           -1600.00
00300           -1600.00
00301           -1520.00
00302           -1520.00
00303           -1520.00
00304           -1520.00
00305           -1520.00
00306           -1520.00
00307           -1600.00
00308           -1520.00
00309           -1520.00
00310           -1520.00
00311           -1520.00
00312           -1520.00
00313           -1520.00
00314           -1520.00
00315           -1520.00
00316           -1440.00
00317           -1520.00
00318           -1440.00
00319           -1440.00
00320           -1440.00
00321           -1520.00
00322           -1440.00
00323           -1440.00
00324           -1440.00
00325           -1440.00
00326           -1440.00
00327           -1440.00
00328           -1440.00
00329           -1440.00
00330           -1360.00
00331           -1360.00
00332           -1360.00
00333           -1360.00
00334           -1360.00
00335           -1360.00
00336           -1360.00
00337           -1280.00
00338           -1360.00
00339           -1280.00
00340           -1280.00
00341           -1360.00
00342           -1280.00
00343           -1200.00
00344           -1280.00
00345           -1280.00
00346           -1280.00
00347           -1200.00
00348           -1200.00
00349           -1120.00
00350           -1200.00
00351           -1120.00
00352           -1120.00
00353           -1200.00
00354           -1200.00
00355           -1120.00
00356           -1120.00
00357           -1120.00
00358           -1120.00
00359           -1040.00
00360           -1120.00
00361           -1040.00
00362           -1120.00
00363           -1040.00
00364           -1040.00
00365           -1120.00
00366           -1120.00
00367           -1040.00
00368           -1040.00
00369           -1040.00
00370           -1040.00
00371            -960.00
00372           -1040.00
00373            -880.00
00374            -960.00
00375            -880.00
00376            -960.00
00377            -880.00
00378            -880.00
00379            -880.00
00380            -880.00
00381            -800.00
00382            -800.00
00383            -880.00
00384            -880.00
00385            -880.00
00386            -880.00
00387            -880.00
00388            -800.00
00389            -800.00
00390            -880.00
00391            -800.00
00392            -800.00
00393            -800.00
00394            -800.00
00395            -800.00
00396            -720.00
00397            -800.00
00398            -800.00
00399            -720.00
00400            -800.00
00401            -720.00
00402            -560.00
00403            -720.00
00404            -560.00
00405            -560.00
00406            -720.00
00407            -640.00
00408            -560.00
00409            -560.00
00410            -640.00
00411            -560.00
00412            -560.00
00413            -480.00
00414            -480.00
00415            -480.00
00416            -480.00
00417            -480.00
00418            -480.00
00419            -480.00
00420            -400.00
00421            -480.00
00422            -480.00
00423            -400.00
00424            -400.00
00425            -480.00
00426            -400.00
00427            -320.00
00428            -400.00
00429            -240.00
00430            -320.00
00431            -240.00
00432            -320.00
00433            -240.00
00434            -320.00
00435            -240.00
00436            -240.00
00437            -240.00
00438            -240.00
00439            -240.00
00440            -240.00
00441            -240.00
00442            -240.00
00443            -160.00
00444            -240.00
00445            -160.00
00446            -160.00
00447            -160.00
00448            -160.00
00449            -160.00
00450            -160.00
00451            -160.00
00452             -80.00
00453             -80.00
00454             -80.00
00455             -80.00
00456             -80.00
00457             -80.00
00458             -80.00
00459              80.00
00460              80.00
00461              80.00
00462              80.00
00463              80.00
00464              80.00
00465              80.00
00466              80.00
00467              80.00
00468              80.00
00469             160.00
00470              80.00
00471             160.00
00472             160.00
00473             160.00
00474             160.00
00475             160.00
00476             160.00
00477             160.00
00478             240.00
00479             240.00
00480             240.00
00481             240.00
00482             240.00
00483             240.00
00484             320.00
00485             400.00
00486             320.00
00487             320.00
00488             320.00
00489             400.00
00490             400.00
00491             400.00
00492             400.00
00493             400.00
00494             480.00
00495             480.00
00496             400.00
00497             480.00
00498             480.00
00499             560.00
00500             480.00
00501             480.00
00502             480.00
00503             560.00
00504             560.00
00505             560.00
00506             560.00
00507             560.00
00508             560.00
00509             560.00
00510             720.00
00511             640.00
00512             720.00
00513             720.00
00514             720.00
00515             720.00
00516             720.00
00517             720.00
00518             720.00
00519             720.00
00520             720.00
00521             720.00
00522             720.00
00523             800.00
00524             800.00
00525             800.00
00526             800.00
00527             800.00
00528             800.00
00529             800.00
00530             880.00
00531             800.00
00532             880.00
00533             880.00
00534             880.00
00535             800.00
00536             880.00
00537             880.00
00538             880.00
00539             880.00
00540            1040.00
00541             880.00
00542             960.00
00543            1040.00
00544            1040.00
00545            1040.00
00546            1040.00
00547            1040.00
00548            1040.00
00549            1040.00
00550            1040.00
00551            1040.00
00552            1120.00
00553            1120.00
00554            1120.00
00555            1120.00
00556            1200.00
00557            1120.00
00558            1120.00
00559            1120.00
00560            1120.00
00561            1200.00
00562            1120.00
00563            1200.00
00564            1200.00
00565            1200.00
00566            1200.00
00567            1200.00
00568            1360.00
00569            1200.00
00570            1360.00
00571            1200.00
00572            1280.00
00573            1360.00
00574            1360.00
00575            1360.00
00576            1360.00
00577            1360.00
00578            1360.00
00579            1360.00
00580            1360.00
00581            1360.00
00582            1360.00
00583            1360.00
00584            1360.00
00585            1360.00
00586            1440.00
00587            1360.00
00588            1440.00
00589            1440.00
00590            1440.00
00591            1440.00
00592            1440.00
00593            1440.00
00594            1440.00
00595            1440.00
00596            1520.00
00597            1440.00
00598            1440.00
00599            1440.00
00600            1520.00
00601            1440.00
00602            1440.00
00603            1520.00
00604            1520.00
00605            1520.00
00606            1520.00
00607            1520.00
00608            1520.00
00609            1600.00
00610            1520.00
00611            1680.00
00612            1680.00
00613            1680.00
00614            1680.00
00615            1680.00
00616            1680.00
00617            1600.00
00618            1680.00
00619            1520.00
00620            1680.00
00621            1680.00
00622            1680.00
00623            1680.00
00624            1680.00
00625            1680.00
00626            1680.00
00627            1680.00
00628            1760.00
00629            1680.00
00630            1760.00
00631            1760.00
00632            1760.00
00633            1760.00
00634            1760.00
00635            1680.00
00636            1760.00
00637            1760.00
00638            1760.00
00639            1760.00
00640            1760.00
00641            1760.00
00642            1840.00
00643            1760.00
00644            1840.00
00645            1840.00
00646            1840.00
00647            1840.00
00648            1760.00
00649            1840.00
00650            1760.00
00651            1840.00
00652            1760.00
00653            1760.00
00654            1760.00
00655            1840.00
00656            1840.00
00657            1840.00
00658            1840.00
00659            1840.00
00660            1840.00
00661            1840.00
00662            1840.00
00663            1840.00
00664            1840.00
00665            1840.00
00666            1920.00
00667            1840.00
00668            1840.00
00669            1840.00
00670            1840.00
00671            1840.00
00672            1920.00
00673            1840.00
00674            1920.00
00675            2000.00
00676            1840.00
00677            1840.00
00678            2000.00
00679            2000.00
00680            1920.00
00681            2000.00
00682            2000.00
00683            2000.00
00684            2000.00
00685            2000.00
00686            1920.00
00687            2000.00
00688            2000.00
00689            2000.00
00690            2080.00
00691            2000.00
00692            2000.00
00693            2000.00
00694            2000.00
00695            2000.00
00696            2000.00
00697            2000.00
00698            2080.00
00699            2000.00
00700            2080.00
00701            2000.00
00702            2000.00
00703            2080.00
00704            2000.00
00705            2080.00
00706            2000.00
00707            1920.00
00708            2000.00
00709            2000.00
00710            2000.00
00711            2000.00
00712            2000.00
00713            2000.00
00714            2000.00
00715            1920.00
00716            2000.00
00717            2000.00
00718            2000.00
00719            2000.00
00720            2000.00
00721            2000.00
00722            2000.00
00723            1920.00
00724            1840.00
00725            2000.00
00726            2000.00
00727            2000.00
00728            2000.00
00729            2000.00
00730            2000.00
00731            1920.00
00732            2000.00
00733            1920.00
00734            2000.00
00735            1920.00
00736            2000.00
00737            2000.00
00738            1920.00
00739            2000.00
00740            1920.00
00741            1920.00
00742            1920.00
00743            1840.00
00744            2000.00
00745            2000.00
00746            2000.00
00747            1840.00
00748            1840.00
00749            2000.00
00750            1920.00
00751            2000.00
00752            1840.00
00753            2000.00
00754            2000.00
00755            2000.00
00756            2000.00
00757            1920.00
00758            1840.00
00759            1840.00
00760            1840.00
00761            1840.00
00762            1840.00
00763            2000.00
00764            1840.00
00765            1920.00
00766            1840.00
