Unit:(mV)
                     CH1
Frequency     98.081 kHz
00001           -1120.00
00002           -1120.00
00003           -1200.00
00004           -1200.00
00005           -1200.00
00006           -1200.00
00007           -1360.00
00008           -1280.00
00009           -1200.00
00010           -1360.00
00011           -1360.00
00012           -1440.00
00013           -1360.00
00014           -1440.00
00015           -1440.00
00016           -1520.00
00017           -1520.00
00018           -1520.00
00019           -1520.00
00020           -1520.00
00021           -1600.00
00022           -1600.00
00023           -1680.00
00024           -1680.00
00025           -1680.00
00026           -1760.00
00027           -1680.00
00028           -1760.00
00029           -1760.00
00030           -1760.00
00031           -1760.00
00032           -1760.00
00033           -1840.00
00034           -1840.00
00035           -1840.00
00036           -1840.00
00037           -2000.00
00038           -2000.00
00039           -2000.00
00040           -2000.00
00041           -2080.00
00042           -2080.00
00043           -2080.00
00044           -2080.00
00045           -2160.00
00046           -2080.00
00047           -2160.00
00048           -2160.00
00049           -2160.00
00050           -2160.00
00051           -2160.00
00052           -2160.00
00053           -2320.00
00054           -2320.00
00055           -2320.00
00056           -2320.00
00057           -2320.00
00058           -2400.00
00059           -2400.00
00060           -2400.00
00061           -2400.00
00062           -2400.00
00063           -2480.00
00064           -2480.00
00065           -2480.00
00066           -2480.00
00067           -2480.00
00068           -2480.00
00069           -2560.00
00070           -2640.00
00071           -2560.00
00072           -2640.00
00073           -2560.00
00074           -2640.00
00075           -2720.00
00076           -2640.00
00077           -2720.00
00078           -2720.00
00079           -2720.00
00080           -2720.00
00081           -2720.00
00082           -2800.00
00083           -2800.00
00084           -2800.00
00085           -2800.00
00086           -2800.00
00087           -2800.00
00088           -2800.00
00089           -2880.00
00090           -2960.00
00091           -2880.00
00092           -2960.00
00093           -2960.00
00094           -2960.00
00095           -2960.00
00096           -2960.00
00097           -3040.00
00098           -3040.00
00099           -3040.00
00100           -3040.00
00101           -3040.00
00102           -3040.00
00103           -3040.00
00104           -3120.00
00105           -3040.00
00106           -3120.00
00107           -3120.00
00108           -3200.00
00109           -3120.00
00110           -3200.00
00111           -3280.00
00112           -3280.00
00113           -3280.00
00114           -3280.00
00115           -3280.00
00116           -3280.00
00117           -3360.00
00118           -3280.00
00119           -3360.00
00120           -3360.00
00121           -3360.00
00122           -3360.00
00123           -3360.00
00124           -3360.00
00125           -3360.00
00126           -3360.00
00127           -3360.00
00128           -3360.00
00129           -3440.00
00130           -3360.00
00131           -3440.00
00132           -3440.00
00133           -3440.00
00134           -3440.00
00135           -3600.00
00136           -3440.00
00137           -3520.00
00138           -3440.00
00139           -3440.00
00140           -3520.00
00141           -3520.00
00142           -3600.00
00143           -3600.00
00144           -3600.00
00145           -3600.00
00146           -3440.00
00147           -3600.00
00148           -3600.00
00149           -3600.00
00150           -3680.00
00151           -3600.00
00152           -3600.00
00153           -3680.00
00154           -3680.00
00155           -3600.00
00156           -3600.00
00157           -3680.00
00158           -3680.00
00159           -3680.00
00160           -3680.00
00161           -3680.00
00162           -3680.00
00163           -3680.00
00164           -3680.00
00165           -3680.00
00166           -3760.00
00167           -3680.00
00168           -3760.00
00169           -3680.00
00170           -3760.00
00171           -3760.00
00172           -3760.00
00173           -3760.00
00174           -3760.00
00175           -3680.00
00176           -3760.00
00177           -3760.00
00178           -3760.00
00179           -3760.00
00180           -3760.00
00181           -3760.00
00182           -3760.00
00183           -3840.00
00184           -3840.00
00185           -3760.00
00186           -3760.00
00187           -3760.00
00188           -3920.00
00189           -3840.00
00190           -3760.00
00191           -3760.00
00192           -3760.00
00193           -3840.00
00194           -3760.00
00195           -3840.00
00196           -3760.00
00197           -3840.00
00198           -3760.00
00199           -3840.00
00200           -3760.00
00201           -3760.00
00202           -3840.00
00203           -3760.00
00204           -3840.00
00205           -3760.00
00206           -3920.00
00207           -3760.00
00208           -3760.00
00209           -3760.00
00210           -3840.00
00211           -3760.00
00212           -3840.00
00213           -3840.00
00214           -3760.00
00215           -3760.00
00216           -3760.00
00217           -3760.00
00218           -3760.00
00219           -3760.00
00220           -3760.00
00221           -3760.00
00222           -3760.00
00223           -3760.00
00224           -3760.00
00225           -3760.00
00226           -3760.00
00227           -3760.00
00228           -3840.00
00229           -3760.00
00230           -3760.00
00231           -3760.00
00232           -3760.00
00233           -3760.00
00234           -3760.00
00235           -3760.00
00236           -3760.00
00237           -3760.00
00238           -3760.00
00239           -3760.00
00240           -3680.00
00241           -3760.00
00242           -3760.00
00243           -3680.00
00244           -3760.00
00245           -3680.00
00246           -3760.00
00247           -3680.00
00248           -3760.00
00249           -3680.00
00250           -3680.00
00251           -3680.00
00252           -3680.00
00253           -3680.00
00254           -3680.00
00255           -3680.00
00256           -3680.00
00257           -3680.00
00258           -3600.00
00259           -3600.00
00260           -3600.00
00261           -3680.00
00262           -3600.00
00263           -3600.00
00264           -3680.00
00265           -3600.00
00266           -3600.00
00267           -3600.00
00268           -3520.00
00269           -3440.00
00270           -3520.00
00271           -3440.00
00272           -3520.00
00273           -3440.00
00274           -3440.00
00275           -3440.00
00276           -3440.00
00277           -3440.00
00278           -3440.00
00279           -3440.00
00280           -3440.00
00281           -3440.00
00282           -3440.00
00283           -3360.00
00284           -3440.00
00285           -3360.00
00286           -3440.00
00287           -3360.00
00288           -3360.00
00289           -3360.00
00290           -3360.00
00291           -3280.00
00292           -3360.00
00293           -3360.00
00294           -3280.00
00295           -3280.00
00296           -3280.00
00297           -3280.00
00298           -3280.00
00299           -3280.00
00300           -3280.00
00301           -3200.00
00302           -3200.00
00303           -3200.00
00304           -3120.00
00305           -3200.00
00306           -3120.00
00307           -3120.00
00308           -3120.00
00309           -3040.00
00310           -3040.00
00311           -3040.00
00312           -3040.00
00313           -3040.00
00314           -3040.00
00315           -3040.00
00316           -3040.00
00317           -2960.00
00318           -3040.00
00319           -2960.00
00320           -2960.00
00321           -2960.00
00322           -2960.00
00323           -2960.00
00324           -2800.00
00325           -2800.00
00326           -2800.00
00327           -2800.00
00328           -2800.00
00329           -2800.00
00330           -2800.00
00331           -2800.00
00332           -2720.00
00333           -2720.00
00334           -2720.00
00335           -2720.00
00336           -2720.00
00337           -2640.00
00338           -2640.00
00339           -2560.00
00340           -2560.00
00341           -2640.00
00342           -2640.00
00343           -2480.00
00344           -2480.00
00345           -2480.00
00346           -2480.00
00347           -2400.00
00348           -2480.00
00349           -2400.00
00350           -2400.00
00351           -2400.00
00352           -2400.00
00353           -2400.00
00354           -2400.00
00355           -2400.00
00356           -2320.00
00357           -2320.00
00358           -2320.00
00359           -2160.00
00360           -2320.00
00361           -2160.00
00362           -2320.00
00363           -2160.00
00364           -2160.00
00365           -2160.00
00366           -2160.00
00367           -2080.00
00368           -2080.00
00369           -2080.00
00370           -2000.00
00371           -2080.00
00372           -2000.00
00373           -2000.00
00374           -2000.00
00375           -2000.00
00376           -1840.00
00377           -1840.00
00378           -1840.00
00379           -1840.00
00380           -1840.00
00381           -1840.00
00382           -1840.00
00383           -1760.00
00384           -1760.00
00385           -1760.00
00386           -1760.00
00387           -1680.00
00388           -1680.00
00389           -1680.00
00390           -1680.00
00391           -1600.00
00392           -1520.00
00393           -1520.00
00394           -1680.00
00395           -1520.00
00396           -1520.00
00397           -1440.00
00398           -1520.00
00399           -1440.00
00400           -1440.00
00401           -1360.00
00402           -1440.00
00403           -1360.00
00404           -1280.00
00405           -1360.00
00406           -1200.00
00407           -1200.00
00408           -1200.00
00409           -1200.00
00410           -1200.00
00411           -1200.00
00412           -1120.00
00413           -1120.00
00414           -1040.00
00415           -1120.00
00416           -1040.00
00417           -1040.00
00418           -1040.00
00419           -1040.00
00420            -960.00
00421            -880.00
00422            -960.00
00423            -880.00
00424            -800.00
00425            -880.00
00426            -880.00
00427            -800.00
00428            -880.00
00429            -800.00
00430            -800.00
00431            -720.00
00432            -720.00
00433            -720.00
00434            -560.00
00435            -720.00
00436            -640.00
00437            -560.00
00438            -560.00
00439            -560.00
00440            -560.00
00441            -480.00
00442            -480.00
00443            -400.00
00444            -480.00
00445            -400.00
00446            -400.00
00447            -320.00
00448            -400.00
00449            -240.00
00450            -240.00
00451            -240.00
00452            -240.00
00453            -240.00
00454            -160.00
00455            -160.00
00456            -160.00
00457             -80.00
00458             -80.00
00459             -80.00
00460             -80.00
00461              80.00
00462              80.00
00463              80.00
00464              80.00
00465             160.00
00466              80.00
00467             160.00
00468             240.00
00469             160.00
00470             160.00
00471             160.00
00472             160.00
00473             320.00
00474             400.00
00475             400.00
00476             320.00
00477             400.00
00478             400.00
00479             480.00
00480             480.00
00481             400.00
00482             480.00
00483             480.00
00484             560.00
00485             560.00
00486             560.00
00487             720.00
00488             720.00
00489             720.00
00490             720.00
00491             720.00
00492             720.00
00493             720.00
00494             800.00
00495             800.00
00496             800.00
00497             800.00
00498             800.00
00499             880.00
00500             880.00
00501             880.00
00502            1040.00
00503             880.00
00504            1040.00
00505            1040.00
00506            1040.00
00507            1040.00
00508            1040.00
00509            1040.00
00510            1120.00
00511            1120.00
00512            1120.00
00513            1200.00
00514            1200.00
00515            1280.00
00516            1360.00
00517            1360.00
00518            1280.00
00519            1360.00
00520            1360.00
00521            1360.00
00522            1440.00
00523            1440.00
00524            1440.00
00525            1440.00
00526            1520.00
00527            1520.00
00528            1520.00
00529            1520.00
00530            1600.00
00531            1680.00
00532            1680.00
00533            1680.00
00534            1680.00
00535            1680.00
00536            1680.00
00537            1680.00
00538            1760.00
00539            1760.00
00540            1840.00
00541            1760.00
00542            1840.00
00543            1840.00
00544            1920.00
00545            1840.00
00546            2000.00
00547            1840.00
00548            2080.00
00549            2000.00
00550            2000.00
00551            2080.00
00552            2000.00
00553            2080.00
00554            2080.00
00555            2160.00
00556            2080.00
00557            2080.00
00558            2160.00
00559            2160.00
00560            2160.00
00561            2160.00
00562            2160.00
00563            2240.00
00564            2320.00
00565            2320.00
00566            2320.00
00567            2400.00
00568            2320.00
00569            2320.00
00570            2400.00
00571            2400.00
00572            2400.00
00573            2400.00
00574            2400.00
00575            2400.00
00576            2480.00
00577            2480.00
00578            2480.00
00579            2640.00
00580            2560.00
00581            2640.00
00582            2640.00
00583            2640.00
00584            2640.00
00585            2720.00
00586            2720.00
00587            2640.00
00588            2720.00
00589            2720.00
00590            2720.00
00591            2720.00
00592            2800.00
00593            2720.00
00594            2720.00
00595            2800.00
00596            2880.00
00597            2880.00
00598            2880.00
00599            2960.00
00600            2960.00
00601            2960.00
00602            2960.00
00603            2960.00
00604            3040.00
00605            3040.00
00606            3040.00
00607            3040.00
00608            3040.00
00609            3040.00
00610            3040.00
00611            3040.00
00612            3120.00
00613            3120.00
00614            3120.00
00615            3120.00
00616            3200.00
00617            3120.00
00618            3120.00
00619            3280.00
00620            3200.00
00621            3200.00
00622            3200.00
00623            3280.00
00624            3200.00
00625            3280.00
00626            3280.00
00627            3280.00
00628            3280.00
00629            3360.00
00630            3360.00
00631            3360.00
00632            3360.00
00633            3360.00
00634            3360.00
00635            3360.00
00636            3360.00
00637            3360.00
00638            3360.00
00639            3360.00
00640            3440.00
00641            3440.00
00642            3440.00
00643            3440.00
00644            3440.00
00645            3440.00
00646            3520.00
00647            3600.00
00648            3600.00
00649            3600.00
00650            3600.00
00651            3600.00
00652            3600.00
00653            3600.00
00654            3600.00
00655            3600.00
00656            3600.00
00657            3600.00
00658            3600.00
00659            3600.00
00660            3600.00
00661            3600.00
00662            3680.00
00663            3680.00
00664            3680.00
00665            3680.00
00666            3680.00
00667            3680.00
00668            3680.00
00669            3680.00
00670            3760.00
00671            3680.00
00672            3760.00
00673            3760.00
00674            3680.00
00675            3680.00
00676            3760.00
00677            3760.00
00678            3760.00
00679            3760.00
00680            3760.00
00681            3760.00
00682            3760.00
00683            3760.00
00684            3760.00
00685            3760.00
00686            3760.00
00687            3840.00
00688            3760.00
00689            3760.00
00690            3760.00
00691            3760.00
00692            3760.00
00693            3840.00
00694            3760.00
00695            3760.00
00696            3840.00
00697            3760.00
00698            3840.00
00699            3760.00
00700            3840.00
00701            3760.00
00702            3920.00
00703            3760.00
00704            3840.00
00705            3760.00
00706            3840.00
00707            3760.00
00708            3920.00
00709            3840.00
00710            3920.00
00711            3840.00
00712            3840.00
00713            3840.00
00714            3760.00
00715            3920.00
00716            3920.00
00717            3840.00
00718            3920.00
00719            3920.00
00720            3920.00
00721            3920.00
00722            3840.00
00723            3760.00
00724            3920.00
00725            3840.00
00726            3920.00
00727            3840.00
00728            3920.00
00729            3920.00
00730            3760.00
00731            3920.00
00732            3840.00
00733            3840.00
00734            3920.00
00735            3920.00
00736            3760.00
00737            3760.00
00738            3840.00
00739            3840.00
00740            3920.00
00741            3840.00
00742            3920.00
00743            3840.00
00744            3760.00
00745            3760.00
00746            3760.00
00747            3760.00
00748            3760.00
00749            3680.00
00750            3680.00
00751            3760.00
00752            3680.00
00753            3760.00
00754            3680.00
00755            3680.00
00756            3760.00
00757            3680.00
00758            3760.00
00759            3680.00
00760            3680.00
00761            3680.00
00762            3680.00
00763            3680.00
00764            3600.00
00765            3600.00
00766            3600.00
