Unit:(mV)
                     CH1
Frequency     98.097 kHz
00001           -1920.00
00002           -2000.00
00003           -2000.00
00004           -2080.00
00005           -2080.00
00006           -2080.00
00007           -2160.00
00008           -2160.00
00009           -2320.00
00010           -2320.00
00011           -2400.00
00012           -2400.00
00013           -2400.00
00014           -2400.00
00015           -2400.00
00016           -2480.00
00017           -2480.00
00018           -2480.00
00019           -2640.00
00020           -2640.00
00021           -2720.00
00022           -2720.00
00023           -2720.00
00024           -2800.00
00025           -2800.00
00026           -2800.00
00027           -2800.00
00028           -2800.00
00029           -2960.00
00030           -3040.00
00031           -2960.00
00032           -3040.00
00033           -3040.00
00034           -3120.00
00035           -3120.00
00036           -3120.00
00037           -3280.00
00038           -3200.00
00039           -3280.00
00040           -3280.00
00041           -3360.00
00042           -3360.00
00043           -3360.00
00044           -3440.00
00045           -3440.00
00046           -3440.00
00047           -3600.00
00048           -3600.00
00049           -3600.00
00050           -3680.00
00051           -3680.00
00052           -3760.00
00053           -3760.00
00054           -3840.00
00055           -3760.00
00056           -3840.00
00057           -3920.00
00058           -3920.00
00059           -3920.00
00060           -4000.00
00061           -4000.00
00062           -4000.00
00063           -4080.00
00064           -4080.00
00065           -4080.00
00066           -4080.00
00067           -4240.00
00068           -4240.00
00069           -4240.00
00070           -4240.00
00071           -4320.00
00072           -4320.00
00073           -4320.00
00074           -4320.00
00075           -4320.00
00076           -4400.00
00077           -4400.00
00078           -4400.00
00079           -4400.00
00080           -4480.00
00081           -4560.00
00082           -4560.00
00083           -4560.00
00084           -4640.00
00085           -4640.00
00086           -4720.00
00087           -4720.00
00088           -4720.00
00089           -4720.00
00090           -4800.00
00091           -4720.00
00092           -4880.00
00093           -4880.00
00094           -4880.00
00095           -4880.00
00096           -4960.00
00097           -4960.00
00098           -4960.00
00099           -4960.00
00100           -4960.00
00101           -5040.00
00102           -5040.00
00103           -5040.00
00104           -5200.00
00105           -5120.00
00106           -5200.00
00107           -5200.00
00108           -5280.00
00109           -5280.00
00110           -5280.00
00111           -5280.00
00112           -5360.00
00113           -5360.00
00114           -5360.00
00115           -5360.00
00116           -5360.00
00117           -5360.00
00118           -5440.00
00119           -5360.00
00120           -5440.00
00121           -5520.00
00122           -5600.00
00123           -5520.00
00124           -5520.00
00125           -5600.00
00126           -5600.00
00127           -5600.00
00128           -5600.00
00129           -5600.00
00130           -5600.00
00131           -5600.00
00132           -5680.00
00133           -5680.00
00134           -5680.00
00135           -5760.00
00136           -5680.00
00137           -5680.00
00138           -5840.00
00139           -5840.00
00140           -5840.00
00141           -5840.00
00142           -5840.00
00143           -5840.00
00144           -5920.00
00145           -5920.00
00146           -5840.00
00147           -5920.00
00148           -5920.00
00149           -5920.00
00150           -5920.00
00151           -5920.00
00152           -5920.00
00153           -5920.00
00154           -6000.00
00155           -5920.00
00156           -6000.00
00157           -6000.00
00158           -6000.00
00159           -6000.00
00160           -6080.00
00161           -6000.00
00162           -6000.00
00163           -6080.00
00164           -6000.00
00165           -6160.00
00166           -6080.00
00167           -6160.00
00168           -6160.00
00169           -6160.00
00170           -6160.00
00171           -6160.00
00172           -6160.00
00173           -6160.00
00174           -6160.00
00175           -6240.00
00176           -6160.00
00177           -6160.00
00178           -6240.00
00179           -6240.00
00180           -6240.00
00181           -6160.00
00182           -6240.00
00183           -6240.00
00184           -6240.00
00185           -6160.00
00186           -6240.00
00187           -6240.00
00188           -6320.00
00189           -6240.00
00190           -6240.00
00191           -6240.00
00192           -6240.00
00193           -6240.00
00194           -6240.00
00195           -6320.00
00196           -6320.00
00197           -6240.00
00198           -6320.00
00199           -6240.00
00200           -6240.00
00201           -6240.00
00202           -6240.00
00203           -6240.00
00204           -6320.00
00205           -6240.00
00206           -6320.00
00207           -6320.00
00208           -6240.00
00209           -6240.00
00210           -6240.00
00211           -6320.00
00212           -6240.00
00213           -6240.00
00214           -6240.00
00215           -6240.00
00216           -6240.00
00217           -6240.00
00218           -6240.00
00219           -6240.00
00220           -6240.00
00221           -6240.00
00222           -6240.00
00223           -6240.00
00224           -6240.00
00225           -6240.00
00226           -6240.00
00227           -6240.00
00228           -6240.00
00229           -6160.00
00230           -6240.00
00231           -6160.00
00232           -6240.00
00233           -6240.00
00234           -6160.00
00235           -6160.00
00236           -6240.00
00237           -6160.00
00238           -6160.00
00239           -6160.00
00240           -6160.00
00241           -6160.00
00242           -6000.00
00243           -6160.00
00244           -6080.00
00245           -6000.00
00246           -6000.00
00247           -6000.00
00248           -6000.00
00249           -6000.00
00250           -6000.00
00251           -6000.00
00252           -6000.00
00253           -6000.00
00254           -6000.00
00255           -6000.00
00256           -6000.00
00257           -6000.00
00258           -5920.00
00259           -5920.00
00260           -5920.00
00261           -5920.00
00262           -5840.00
00263           -5920.00
00264           -5840.00
00265           -5840.00
00266           -5840.00
00267           -5840.00
00268           -5840.00
00269           -5680.00
00270           -5680.00
00271           -5680.00
00272           -5680.00
00273           -5680.00
00274           -5600.00
00275           -5680.00
00276           -5600.00
00277           -5600.00
00278           -5600.00
00279           -5600.00
00280           -5600.00
00281           -5600.00
00282           -5600.00
00283           -5520.00
00284           -5520.00
00285           -5520.00
00286           -5360.00
00287           -5520.00
00288           -5360.00
00289           -5360.00
00290           -5360.00
00291           -5360.00
00292           -5360.00
00293           -5360.00
00294           -5360.00
00295           -5280.00
00296           -5360.00
00297           -5280.00
00298           -5280.00
00299           -5280.00
00300           -5200.00
00301           -5200.00
00302           -5200.00
00303           -5200.00
00304           -5200.00
00305           -5120.00
00306           -5040.00
00307           -5040.00
00308           -5040.00
00309           -5040.00
00310           -4960.00
00311           -4960.00
00312           -4960.00
00313           -4880.00
00314           -4880.00
00315           -4880.00
00316           -4880.00
00317           -4880.00
00318           -4880.00
00319           -4720.00
00320           -4720.00
00321           -4720.00
00322           -4720.00
00323           -4640.00
00324           -4640.00
00325           -4640.00
00326           -4640.00
00327           -4560.00
00328           -4480.00
00329           -4400.00
00330           -4400.00
00331           -4480.00
00332           -4400.00
00333           -4400.00
00334           -4400.00
00335           -4320.00
00336           -4320.00
00337           -4320.00
00338           -4320.00
00339           -4240.00
00340           -4240.00
00341           -4160.00
00342           -4080.00
00343           -4080.00
00344           -4000.00
00345           -4080.00
00346           -4000.00
00347           -3920.00
00348           -4000.00
00349           -3920.00
00350           -3920.00
00351           -3920.00
00352           -3840.00
00353           -3760.00
00354           -3760.00
00355           -3680.00
00356           -3680.00
00357           -3680.00
00358           -3680.00
00359           -3600.00
00360           -3600.00
00361           -3520.00
00362           -3440.00
00363           -3440.00
00364           -3440.00
00365           -3440.00
00366           -3440.00
00367           -3360.00
00368           -3360.00
00369           -3360.00
00370           -3280.00
00371           -3280.00
00372           -3280.00
00373           -3120.00
00374           -3120.00
00375           -3120.00
00376           -3040.00
00377           -3120.00
00378           -3040.00
00379           -2960.00
00380           -2960.00
00381           -2960.00
00382           -2880.00
00383           -2800.00
00384           -2800.00
00385           -2800.00
00386           -2720.00
00387           -2720.00
00388           -2720.00
00389           -2720.00
00390           -2640.00
00391           -2560.00
00392           -2480.00
00393           -2400.00
00394           -2480.00
00395           -2400.00
00396           -2400.00
00397           -2400.00
00398           -2320.00
00399           -2160.00
00400           -2320.00
00401           -2160.00
00402           -2160.00
00403           -2080.00
00404           -2080.00
00405           -2080.00
00406           -2000.00
00407           -2000.00
00408           -2000.00
00409           -1840.00
00410           -1840.00
00411           -1840.00
00412           -1760.00
00413           -1760.00
00414           -1760.00
00415           -1680.00
00416           -1680.00
00417           -1680.00
00418           -1520.00
00419           -1520.00
00420           -1520.00
00421           -1440.00
00422           -1440.00
00423           -1440.00
00424           -1360.00
00425           -1360.00
00426           -1360.00
00427           -1200.00
00428           -1200.00
00429           -1120.00
00430           -1120.00
00431           -1120.00
00432           -1120.00
00433           -1040.00
00434            -960.00
00435            -880.00
00436            -880.00
00437            -880.00
00438            -880.00
00439            -800.00
00440            -800.00
00441            -720.00
00442            -720.00
00443            -720.00
00444            -560.00
00445            -560.00
00446            -480.00
00447            -480.00
00448            -480.00
00449            -400.00
00450            -400.00
00451            -400.00
00452            -240.00
00453            -320.00
00454            -240.00
00455            -240.00
00456            -160.00
00457            -160.00
00458            -160.00
00459             -80.00
00460              80.00
00461               0.00
00462              80.00
00463             160.00
00464             160.00
00465             240.00
00466             240.00
00467             240.00
00468             320.00
00469             400.00
00470             480.00
00471             480.00
00472             480.00
00473             480.00
00474             560.00
00475             560.00
00476             640.00
00477             720.00
00478             720.00
00479             720.00
00480             800.00
00481             880.00
00482             880.00
00483             880.00
00484            1040.00
00485            1040.00
00486            1040.00
00487            1120.00
00488            1120.00
00489            1200.00
00490            1120.00
00491            1200.00
00492            1200.00
00493            1360.00
00494            1360.00
00495            1360.00
00496            1360.00
00497            1440.00
00498            1440.00
00499            1440.00
00500            1520.00
00501            1600.00
00502            1680.00
00503            1680.00
00504            1680.00
00505            1760.00
00506            1760.00
00507            1760.00
00508            1840.00
00509            1840.00
00510            1920.00
00511            2000.00
00512            2000.00
00513            2080.00
00514            2080.00
00515            2160.00
00516            2160.00
00517            2160.00
00518            2160.00
00519            2320.00
00520            2320.00
00521            2320.00
00522            2400.00
00523            2400.00
00524            2400.00
00525            2480.00
00526            2480.00
00527            2640.00
00528            2640.00
00529            2640.00
00530            2720.00
00531            2720.00
00532            2720.00
00533            2800.00
00534            2800.00
00535            2800.00
00536            2960.00
00537            2960.00
00538            2960.00
00539            2960.00
00540            3040.00
00541            3040.00
00542            3120.00
00543            3120.00
00544            3200.00
00545            3280.00
00546            3280.00
00547            3280.00
00548            3280.00
00549            3360.00
00550            3360.00
00551            3440.00
00552            3440.00
00553            3440.00
00554            3600.00
00555            3520.00
00556            3440.00
00557            3600.00
00558            3600.00
00559            3680.00
00560            3680.00
00561            3760.00
00562            3760.00
00563            3760.00
00564            3760.00
00565            3760.00
00566            3920.00
00567            3920.00
00568            3920.00
00569            4000.00
00570            4000.00
00571            4000.00
00572            4000.00
00573            4080.00
00574            4080.00
00575            4080.00
00576            4240.00
00577            4240.00
00578            4240.00
00579            4240.00
00580            4320.00
00581            4240.00
00582            4320.00
00583            4400.00
00584            4400.00
00585            4400.00
00586            4400.00
00587            4400.00
00588            4560.00
00589            4560.00
00590            4560.00
00591            4640.00
00592            4640.00
00593            4640.00
00594            4720.00
00595            4720.00
00596            4720.00
00597            4800.00
00598            4880.00
00599            4880.00
00600            4800.00
00601            4880.00
00602            4880.00
00603            4880.00
00604            4880.00
00605            5040.00
00606            4960.00
00607            5040.00
00608            4960.00
00609            5040.00
00610            5200.00
00611            5120.00
00612            5200.00
00613            5200.00
00614            5200.00
00615            5200.00
00616            5280.00
00617            5280.00
00618            5200.00
00619            5280.00
00620            5280.00
00621            5280.00
00622            5360.00
00623            5360.00
00624            5360.00
00625            5440.00
00626            5440.00
00627            5440.00
00628            5440.00
00629            5520.00
00630            5520.00
00631            5520.00
00632            5520.00
00633            5520.00
00634            5520.00
00635            5600.00
00636            5600.00
00637            5600.00
00638            5600.00
00639            5600.00
00640            5680.00
00641            5680.00
00642            5680.00
00643            5840.00
00644            5680.00
00645            5840.00
00646            5680.00
00647            5760.00
00648            5840.00
00649            5840.00
00650            5840.00
00651            5840.00
00652            5840.00
00653            5840.00
00654            5920.00
00655            5920.00
00656            5920.00
00657            5920.00
00658            5920.00
00659            6000.00
00660            5920.00
00661            6000.00
00662            6000.00
00663            6000.00
00664            6000.00
00665            6160.00
00666            6000.00
00667            6160.00
00668            6160.00
00669            6160.00
00670            6160.00
00671            6160.00
00672            6160.00
00673            6160.00
00674            6240.00
00675            6160.00
00676            6160.00
00677            6160.00
00678            6160.00
00679            6160.00
00680            6160.00
00681            6240.00
00682            6160.00
00683            6240.00
00684            6240.00
00685            6160.00
00686            6240.00
00687            6240.00
00688            6240.00
00689            6160.00
00690            6240.00
00691            6240.00
00692            6240.00
00693            6240.00
00694            6240.00
00695            6320.00
00696            6240.00
00697            6320.00
00698            6240.00
00699            6240.00
00700            6240.00
00701            6320.00
00702            6320.00
00703            6240.00
00704            6240.00
00705            6240.00
00706            6240.00
00707            6320.00
00708            6320.00
00709            6240.00
00710            6320.00
00711            6320.00
00712            6320.00
00713            6320.00
00714            6320.00
00715            6320.00
00716            6320.00
00717            6320.00
00718            6240.00
00719            6240.00
00720            6240.00
00721            6240.00
00722            6320.00
00723            6320.00
00724            6320.00
00725            6240.00
00726            6320.00
00727            6240.00
00728            6240.00
00729            6320.00
00730            6240.00
00731            6240.00
00732            6240.00
00733            6240.00
00734            6240.00
00735            6240.00
00736            6240.00
00737            6320.00
00738            6240.00
00739            6240.00
00740            6240.00
00741            6240.00
00742            6160.00
00743            6240.00
00744            6240.00
00745            6240.00
00746            6160.00
00747            6240.00
00748            6160.00
00749            6160.00
00750            6160.00
00751            6160.00
00752            6160.00
00753            6160.00
00754            6080.00
00755            6160.00
00756            6080.00
00757            6160.00
00758            6160.00
00759            6000.00
00760            6000.00
00761            6000.00
00762            6000.00
00763            6000.00
00764            6000.00
00765            6000.00
00766            6000.00
