Unit:(mV)
                     CH1
Frequency    301.830 kHz
00001            1400.00
00002            1200.00
00003            1200.00
00004            1200.00
00005            1000.00
00006             800.00
00007             600.00
00008             600.00
00009             400.00
00010             400.00
00011             200.00
00012             200.00
00013               0.00
00014            -200.00
00015            -400.00
00016            -400.00
00017            -600.00
00018            -600.00
00019            -600.00
00020            -600.00
00021           -1000.00
00022           -1200.00
00023           -1200.00
00024           -1200.00
00025           -1400.00
00026           -1400.00
00027           -1800.00
00028           -1800.00
00029           -1800.00
00030           -2200.00
00031           -2200.00
00032           -2200.00
00033           -2200.00
00034           -2600.00
00035           -2600.00
00036           -2800.00
00037           -3000.00
00038           -3000.00
00039           -3000.00
00040           -3200.00
00041           -3400.00
00042           -3400.00
00043           -3400.00
00044           -3800.00
00045           -3600.00
00046           -3800.00
00047           -4000.00
00048           -4200.00
00049           -4200.00
00050           -4200.00
00051           -4400.00
00052           -4400.00
00053           -4400.00
00054           -4400.00
00055           -4600.00
00056           -4600.00
00057           -5000.00
00058           -5000.00
00059           -5200.00
00060           -5200.00
00061           -5200.00
00062           -5400.00
00063           -5400.00
00064           -5400.00
00065           -5400.00
00066           -5600.00
00067           -5800.00
00068           -6000.00
00069           -5800.00
00070           -6000.00
00071           -6000.00
00072           -6000.00
00073           -6000.00
00074           -6200.00
00075           -6200.00
00076           -6200.00
00077           -6200.00
00078           -6200.00
00079           -6400.00
00080           -6200.00
00081           -6400.00
00082           -6200.00
00083           -6600.00
00084           -6600.00
00085           -6600.00
00086           -6600.00
00087           -6600.00
00088           -6600.00
00089           -6600.00
00090           -6600.00
00091           -6600.00
00092           -6600.00
00093           -6800.00
00094           -6600.00
00095           -6800.00
00096           -6600.00
00097           -6800.00
00098           -6800.00
00099           -6600.00
00100           -6600.00
00101           -6600.00
00102           -6600.00
00103           -6600.00
00104           -6600.00
00105           -6600.00
00106           -6400.00
00107           -6400.00
00108           -6600.00
00109           -6200.00
00110           -6200.00
00111           -6200.00
00112           -6200.00
00113           -6200.00
00114           -6200.00
00115           -6000.00
00116           -6200.00
00117           -6000.00
00118           -6000.00
00119           -6000.00
00120           -6000.00
00121           -6000.00
00122           -5800.00
00123           -5800.00
00124           -6000.00
00125           -5800.00
00126           -5800.00
00127           -5400.00
00128           -5400.00
00129           -5400.00
00130           -5200.00
00131           -5200.00
00132           -5200.00
00133           -5000.00
00134           -5200.00
00135           -5000.00
00136           -4600.00
00137           -4600.00
00138           -4600.00
00139           -4400.00
00140           -4400.00
00141           -4400.00
00142           -4200.00
00143           -4200.00
00144           -4000.00
00145           -3800.00
00146           -3800.00
00147           -3800.00
00148           -3600.00
00149           -3600.00
00150           -3400.00
00151           -3000.00
00152           -3200.00
00153           -3000.00
00154           -2800.00
00155           -2800.00
00156           -2800.00
00157           -2800.00
00158           -2400.00
00159           -2600.00
00160           -2200.00
00161           -2000.00
00162           -2200.00
00163           -2000.00
00164           -1800.00
00165           -1800.00
00166           -1400.00
00167           -1200.00
00168           -1200.00
00169           -1200.00
00170           -1000.00
00171           -1000.00
00172            -600.00
00173            -800.00
00174            -400.00
00175            -400.00
00176            -200.00
00177            -200.00
00178            -200.00
00179             200.00
00180             200.00
00181             400.00
00182             400.00
00183             400.00
00184             600.00
00185            1000.00
00186             600.00
00187            1000.00
00188            1200.00
00189            1200.00
00190            1200.00
00191            1400.00
00192            1800.00
00193            1800.00
00194            1800.00
00195            2000.00
00196            2200.00
00197            2200.00
00198            2400.00
00199            2600.00
00200            2600.00
00201            2600.00
00202            2600.00
00203            3000.00
00204            2800.00
00205            3000.00
00206            3400.00
00207            3400.00
00208            3400.00
00209            3600.00
00210            3600.00
00211            3800.00
00212            3800.00
00213            4200.00
00214            4200.00
00215            4200.00
00216            4200.00
00217            4400.00
00218            4400.00
00219            4400.00
00220            4600.00
00221            5000.00
00222            4800.00
00223            5000.00
00224            5000.00
00225            5200.00
00226            5200.00
00227            5200.00
00228            5400.00
00229            5400.00
00230            5400.00
00231            5800.00
00232            5800.00
00233            5800.00
00234            5800.00
00235            5800.00
00236            5800.00
00237            6000.00
00238            6000.00
00239            6000.00
00240            6000.00
00241            6000.00
00242            6200.00
00243            6200.00
00244            6200.00
00245            6400.00
00246            6200.00
00247            6400.00
00248            6600.00
00249            6600.00
00250            6400.00
00251            6600.00
00252            6400.00
00253            6600.00
00254            6600.00
00255            6600.00
00256            6600.00
00257            6600.00
00258            6600.00
00259            6600.00
00260            6600.00
00261            6600.00
00262            6600.00
00263            6600.00
00264            6600.00
00265            6600.00
00266            6600.00
00267            6600.00
00268            6600.00
00269            6600.00
00270            6600.00
00271            6400.00
00272            6600.00
00273            6600.00
00274            6600.00
00275            6400.00
00276            6400.00
00277            6400.00
00278            6200.00
00279            6200.00
00280            6200.00
00281            6200.00
00282            6200.00
00283            6000.00
00284            6000.00
00285            6000.00
00286            5800.00
00287            5800.00
00288            5800.00
00289            5800.00
00290            5800.00
00291            5600.00
00292            5400.00
00293            5400.00
00294            5400.00
00295            5200.00
00296            5200.00
00297            5200.00
00298            5000.00
00299            5000.00
00300            5000.00
00301            4800.00
00302            4800.00
00303            4600.00
00304            4600.00
00305            4400.00
00306            4200.00
00307            4200.00
00308            4200.00
00309            4200.00
00310            4000.00
00311            3800.00
00312            3800.00
00313            3600.00
00314            3600.00
00315            3400.00
00316            3400.00
00317            3400.00
00318            3000.00
00319            3000.00
00320            2800.00
00321            2600.00
00322            2600.00
00323            2600.00
00324            2400.00
00325            2200.00
00326            2200.00
00327            2000.00
00328            2000.00
00329            1800.00
00330            1800.00
00331            1600.00
00332            1400.00
00333            1400.00
00334            1200.00
00335            1000.00
00336            1000.00
00337             800.00
00338             600.00
00339             600.00
00340             600.00
00341             400.00
00342             200.00
00343             200.00
00344             200.00
00345            -400.00
00346            -200.00
00347            -200.00
00348            -600.00
00349            -600.00
00350            -600.00
00351            -600.00
00352           -1000.00
00353           -1200.00
00354           -1200.00
00355           -1400.00
00356           -1400.00
00357           -1400.00
00358           -1800.00
00359           -1800.00
00360           -1800.00
00361           -2200.00
00362           -2200.00
00363           -2200.00
00364           -2200.00
00365           -2600.00
00366           -2800.00
00367           -2600.00
00368           -2800.00
00369           -3000.00
00370           -3000.00
00371           -3000.00
00372           -3400.00
00373           -3400.00
00374           -3600.00
00375           -3800.00
00376           -3800.00
00377           -3800.00
00378           -3800.00
00379           -4200.00
00380           -4400.00
00381           -4200.00
00382           -4400.00
00383           -4400.00
00384           -4400.00
00385           -4600.00
00386           -4600.00
00387           -5000.00
00388           -5000.00
00389           -5000.00
00390           -5200.00
00391           -5200.00
00392           -5200.00
00393           -5400.00
00394           -5200.00
00395           -5400.00
00396           -5400.00
00397           -5800.00
00398           -5600.00
00399           -5800.00
00400           -6000.00
00401           -6000.00
00402           -6000.00
00403           -6000.00
00404           -6000.00
00405           -6200.00
00406           -6200.00
00407           -6200.00
00408           -6200.00
00409           -6200.00
00410           -6200.00
00411           -6200.00
00412           -6200.00
00413           -6200.00
00414           -6400.00
00415           -6600.00
00416           -6600.00
00417           -6600.00
00418           -6600.00
00419           -6600.00
00420           -6600.00
00421           -6600.00
00422           -6800.00
00423           -6600.00
00424           -6600.00
00425           -6600.00
00426           -6600.00
00427           -6600.00
00428           -6600.00
00429           -6800.00
00430           -6800.00
00431           -6600.00
00432           -6600.00
00433           -6600.00
00434           -6600.00
00435           -6600.00
00436           -6200.00
00437           -6400.00
00438           -6600.00
00439           -6200.00
00440           -6200.00
00441           -6200.00
00442           -6200.00
00443           -6200.00
00444           -6200.00
00445           -6200.00
00446           -6200.00
00447           -6200.00
00448           -6000.00
00449           -6000.00
00450           -6000.00
00451           -6000.00
00452           -6000.00
00453           -6000.00
00454           -5800.00
00455           -5800.00
00456           -5800.00
00457           -5600.00
00458           -5800.00
00459           -5400.00
00460           -5400.00
00461           -5200.00
00462           -5200.00
00463           -5200.00
00464           -5200.00
00465           -5000.00
00466           -5000.00
00467           -4800.00
00468           -4600.00
00469           -4600.00
00470           -4600.00
00471           -4400.00
00472           -4400.00
00473           -4200.00
00474           -4200.00
00475           -4200.00
00476           -3800.00
00477           -3800.00
00478           -3800.00
00479           -3600.00
00480           -3600.00
00481           -3600.00
00482           -3400.00
00483           -3400.00
00484           -3200.00
00485           -3000.00
00486           -2800.00
00487           -2800.00
00488           -2600.00
00489           -2600.00
00490           -2400.00
00491           -2200.00
00492           -2200.00
00493           -2000.00
00494           -2000.00
00495           -2000.00
00496           -1400.00
00497           -1800.00
00498           -1400.00
00499           -1200.00
00500           -1200.00
00501           -1200.00
00502           -1000.00
00503           -1000.00
00504            -600.00
00505            -600.00
00506            -400.00
00507            -400.00
00508            -200.00
00509            -200.00
00510             200.00
00511             200.00
00512             200.00
00513             200.00
00514             400.00
00515             400.00
00516             600.00
00517             800.00
00518            1000.00
00519            1200.00
00520            1200.00
00521            1200.00
00522            1400.00
00523            1800.00
00524            1800.00
00525            1800.00
00526            2000.00
00527            2000.00
00528            2200.00
00529            2200.00
00530            2600.00
00531            2600.00
00532            2600.00
00533            2800.00
00534            2800.00
00535            3000.00
00536            3000.00
00537            3400.00
00538            3400.00
00539            3600.00
00540            3600.00
00541            3600.00
00542            3600.00
00543            3800.00
00544            4200.00
00545            4000.00
00546            4200.00
00547            4200.00
00548            4400.00
00549            4400.00
00550            4600.00
00551            4600.00
00552            4600.00
00553            5000.00
00554            5000.00
00555            5000.00
00556            5000.00
00557            5200.00
00558            5400.00
00559            5200.00
00560            5400.00
00561            5400.00
00562            5400.00
00563            5800.00
00564            5800.00
00565            5800.00
00566            5800.00
00567            6000.00
00568            5800.00
00569            6000.00
00570            5800.00
00571            6000.00
00572            6000.00
00573            6200.00
00574            6200.00
00575            6200.00
00576            6200.00
00577            6200.00
00578            6200.00
00579            6200.00
00580            6400.00
00581            6600.00
00582            6600.00
00583            6600.00
00584            6600.00
00585            6600.00
00586            6600.00
00587            6600.00
00588            6600.00
00589            6600.00
00590            6600.00
00591            6600.00
00592            6600.00
00593            6600.00
00594            6600.00
00595            6600.00
00596            6600.00
00597            6600.00
00598            6600.00
00599            6600.00
00600            6600.00
00601            6600.00
00602            6600.00
00603            6600.00
00604            6400.00
00605            6600.00
00606            6600.00
00607            6400.00
00608            6600.00
00609            6200.00
00610            6400.00
00611            6200.00
00612            6200.00
00613            6000.00
00614            6000.00
00615            6000.00
00616            6000.00
00617            6000.00
00618            5800.00
00619            5800.00
00620            5800.00
00621            5800.00
00622            5600.00
00623            5800.00
00624            5400.00
00625            5400.00
00626            5200.00
00627            5200.00
00628            5200.00
00629            5000.00
00630            5000.00
00631            5000.00
00632            5000.00
00633            4600.00
00634            4600.00
00635            4400.00
00636            4600.00
00637            4400.00
00638            4200.00
00639            4200.00
00640            4200.00
00641            4000.00
00642            4000.00
00643            3800.00
00644            3600.00
00645            3600.00
00646            3400.00
00647            3400.00
00648            3400.00
00649            3200.00
00650            3000.00
00651            2800.00
00652            2800.00
00653            2600.00
00654            2600.00
00655            2600.00
00656            2200.00
00657            2200.00
00658            2200.00
00659            2000.00
00660            2000.00
00661            1800.00
00662            1800.00
00663            1600.00
00664            1600.00
00665            1400.00
00666            1200.00
00667            1200.00
00668            1000.00
00669            1000.00
00670             600.00
00671             400.00
00672             400.00
00673             200.00
00674             200.00
00675             200.00
00676            -200.00
00677            -400.00
00678            -200.00
00679            -400.00
00680            -600.00
00681            -600.00
00682            -600.00
00683            -800.00
00684           -1200.00
00685           -1400.00
00686           -1200.00
00687           -1200.00
00688           -1400.00
00689           -1800.00
00690           -1800.00
00691           -1800.00
00692           -2000.00
00693           -2200.00
00694           -2200.00
00695           -2200.00
00696           -2600.00
00697           -2600.00
00698           -2600.00
00699           -2800.00
00700           -2800.00
00701           -3000.00
00702           -2800.00
00703           -3400.00
00704           -3400.00
00705           -3400.00
00706           -3600.00
00707           -3800.00
00708           -3800.00
00709           -3800.00
00710           -4200.00
00711           -4200.00
00712           -4400.00
00713           -4400.00
00714           -4400.00
00715           -4600.00
00716           -4600.00
00717           -4600.00
00718           -4800.00
00719           -5000.00
00720           -5000.00
00721           -5000.00
00722           -5200.00
00723           -5200.00
00724           -5400.00
00725           -5400.00
00726           -5600.00
00727           -5400.00
00728           -5800.00
00729           -5800.00
00730           -5800.00
00731           -5800.00
00732           -5800.00
00733           -6000.00
00734           -6000.00
00735           -6000.00
00736           -6000.00
00737           -6200.00
00738           -6200.00
00739           -6000.00
00740           -6200.00
00741           -6200.00
00742           -6200.00
00743           -6200.00
00744           -6200.00
00745           -6400.00
00746           -6600.00
00747           -6400.00
00748           -6600.00
00749           -6600.00
00750           -6600.00
00751           -6600.00
00752           -6400.00
00753           -6600.00
00754           -6600.00
00755           -6800.00
00756           -6600.00
00757           -6800.00
00758           -6600.00
00759           -6600.00
00760           -6600.00
00761           -6600.00
00762           -6600.00
00763           -6200.00
00764           -6600.00
00765           -6600.00
00766           -6600.00
