Unit:(mV)
                     CH1
Frequency    300.995 kHz
00001            1800.00
00002            1200.00
00003            1000.00
00004             600.00
00005             200.00
00006            -200.00
00007            -400.00
00008           -1000.00
00009           -1200.00
00010           -1400.00
00011           -1800.00
00012           -2200.00
00013           -2600.00
00014           -2800.00
00015           -3400.00
00016           -3800.00
00017           -4400.00
00018           -4600.00
00019           -4600.00
00020           -5000.00
00021           -5400.00
00022           -6000.00
00023           -6200.00
00024           -6600.00
00025           -6800.00
00026           -7200.00
00027           -7600.00
00028           -7800.00
00029           -8400.00
00030           -8800.00
00031           -9000.00
00032           -9400.00
00033           -9800.00
00034          -10000.00
00035          -10200.00
00036          -10800.00
00037          -11000.00
00038          -11200.00
00039          -11600.00
00040          -11800.00
00041          -12200.00
00042          -12600.00
00043          -12800.00
00044          -13000.00
00045          -13400.00
00046          -13400.00
00047          -14000.00
00048          -14200.00
00049          -14400.00
00050          -14800.00
00051          -15000.00
00052          -15400.00
00053          -15600.00
00054          -15600.00
00055          -15800.00
00056          -16200.00
00057          -16400.00
00058          -16600.00
00059          -16600.00
00060          -17000.00
00061          -17200.00
00062          -17200.00
00063          -17400.00
00064          -17800.00
00065          -18000.00
00066          -18000.00
00067          -18000.00
00068          -18200.00
00069          -18200.00
00070          -18600.00
00071          -18600.00
00072          -18800.00
00073          -19000.00
00074          -19000.00
00075          -19000.00
00076          -19000.00
00077          -19400.00
00078          -19600.00
00079          -19600.00
00080          -19600.00
00081          -19600.00
00082          -19600.00
00083          -19800.00
00084          -19800.00
00085          -19800.00
00086          -19800.00
00087          -19800.00
00088          -19800.00
00089          -19800.00
00090          -19800.00
00091          -19800.00
00092          -19800.00
00093          -19800.00
00094          -19600.00
00095          -19800.00
00096          -19600.00
00097          -19600.00
00098          -19600.00
00099          -19600.00
00100          -19400.00
00101          -19400.00
00102          -19200.00
00103          -19000.00
00104          -19000.00
00105          -18800.00
00106          -18800.00
00107          -18600.00
00108          -18400.00
00109          -18200.00
00110          -18000.00
00111          -18000.00
00112          -18000.00
00113          -17800.00
00114          -17400.00
00115          -17200.00
00116          -17200.00
00117          -17000.00
00118          -16600.00
00119          -16600.00
00120          -16400.00
00121          -16000.00
00122          -15800.00
00123          -15600.00
00124          -15400.00
00125          -15400.00
00126          -15000.00
00127          -14800.00
00128          -14400.00
00129          -14200.00
00130          -14000.00
00131          -13800.00
00132          -13400.00
00133          -13000.00
00134          -12600.00
00135          -12400.00
00136          -12200.00
00137          -11800.00
00138          -11800.00
00139          -11400.00
00140          -11000.00
00141          -10600.00
00142          -10200.00
00143          -10200.00
00144           -9800.00
00145           -9600.00
00146           -9200.00
00147           -8600.00
00148           -8600.00
00149           -8200.00
00150           -7800.00
00151           -7600.00
00152           -7000.00
00153           -6800.00
00154           -6600.00
00155           -6000.00
00156           -5800.00
00157           -5400.00
00158           -5000.00
00159           -4600.00
00160           -4400.00
00161           -3800.00
00162           -3600.00
00163           -3400.00
00164           -2800.00
00165           -2600.00
00166           -2000.00
00167           -1800.00
00168           -1400.00
00169           -1000.00
00170            -600.00
00171            -200.00
00172             200.00
00173             400.00
00174            1000.00
00175            1200.00
00176            1800.00
00177            2000.00
00178            2200.00
00179            2600.00
00180            3000.00
00181            3400.00
00182            3600.00
00183            4200.00
00184            4600.00
00185            4800.00
00186            5200.00
00187            5400.00
00188            5800.00
00189            6000.00
00190            6600.00
00191            6800.00
00192            7200.00
00193            7600.00
00194            7800.00
00195            8200.00
00196            8600.00
00197            9000.00
00198            9200.00
00199            9800.00
00200           10000.00
00201           10200.00
00202           10600.00
00203           11000.00
00204           11000.00
00205           11600.00
00206           11800.00
00207           12200.00
00208           12400.00
00209           12800.00
00210           13000.00
00211           13200.00
00212           13600.00
00213           14000.00
00214           14200.00
00215           14400.00
00216           14600.00
00217           15000.00
00218           15200.00
00219           15400.00
00220           15400.00
00221           15800.00
00222           16200.00
00223           16400.00
00224           16400.00
00225           16600.00
00226           17000.00
00227           17000.00
00228           17200.00
00229           17400.00
00230           17600.00
00231           17800.00
00232           18000.00
00233           18000.00
00234           18200.00
00235           18400.00
00236           18600.00
00237           18600.00
00238           18800.00
00239           18800.00
00240           19200.00
00241           19000.00
00242           19400.00
00243           19400.00
00244           19400.00
00245           19600.00
00246           19600.00
00247           19600.00
00248           19600.00
00249           19800.00
00250           19600.00
00251           19800.00
00252           19800.00
00253           19800.00
00254           19800.00
00255           19600.00
00256           19800.00
00257           19800.00
00258           19600.00
00259           19800.00
00260           19600.00
00261           19600.00
00262           19600.00
00263           19600.00
00264           19600.00
00265           19400.00
00266           19400.00
00267           19400.00
00268           19200.00
00269           19000.00
00270           19000.00
00271           19000.00
00272           18800.00
00273           18600.00
00274           18600.00
00275           18200.00
00276           18200.00
00277           18000.00
00278           18000.00
00279           17800.00
00280           17600.00
00281           17200.00
00282           17000.00
00283           17000.00
00284           16600.00
00285           16600.00
00286           16400.00
00287           16200.00
00288           15800.00
00289           15800.00
00290           15400.00
00291           15400.00
00292           15000.00
00293           14800.00
00294           14600.00
00295           14200.00
00296           14000.00
00297           13800.00
00298           13400.00
00299           13200.00
00300           12800.00
00301           12400.00
00302           12200.00
00303           12200.00
00304           11600.00
00305           11600.00
00306           11200.00
00307           10600.00
00308           10600.00
00309           10000.00
00310           10000.00
00311            9600.00
00312            9200.00
00313            8600.00
00314            8400.00
00315            8400.00
00316            8000.00
00317            7600.00
00318            7400.00
00319            6800.00
00320            6600.00
00321            6000.00
00322            5800.00
00323            5400.00
00324            5200.00
00325            4800.00
00326            4400.00
00327            4200.00
00328            3600.00
00329            3400.00
00330            2800.00
00331            2600.00
00332            2200.00
00333            1800.00
00334            1400.00
00335            1000.00
00336             600.00
00337             400.00
00338            -200.00
00339            -400.00
00340            -800.00
00341           -1200.00
00342           -1400.00
00343           -1800.00
00344           -2200.00
00345           -2400.00
00346           -2800.00
00347           -3400.00
00348           -3800.00
00349           -4400.00
00350           -4600.00
00351           -4600.00
00352           -5000.00
00353           -5400.00
00354           -6000.00
00355           -6000.00
00356           -6600.00
00357           -7000.00
00358           -7000.00
00359           -7600.00
00360           -8000.00
00361           -8200.00
00362           -8600.00
00363           -9000.00
00364           -9200.00
00365           -9800.00
00366          -10000.00
00367          -10200.00
00368          -10400.00
00369          -11000.00
00370          -11000.00
00371          -11400.00
00372          -11800.00
00373          -12200.00
00374          -12400.00
00375          -12600.00
00376          -13200.00
00377          -13200.00
00378          -13400.00
00379          -13800.00
00380          -14000.00
00381          -14200.00
00382          -14800.00
00383          -14800.00
00384          -15000.00
00385          -15400.00
00386          -15600.00
00387          -15800.00
00388          -15800.00
00389          -16400.00
00390          -16400.00
00391          -16800.00
00392          -16600.00
00393          -17000.00
00394          -17200.00
00395          -17400.00
00396          -17400.00
00397          -17800.00
00398          -17800.00
00399          -18200.00
00400          -18200.00
00401          -18600.00
00402          -18600.00
00403          -18600.00
00404          -18800.00
00405          -19000.00
00406          -19000.00
00407          -19000.00
00408          -19400.00
00409          -19400.00
00410          -19600.00
00411          -19600.00
00412          -19600.00
00413          -19600.00
00414          -19800.00
00415          -19600.00
00416          -19800.00
00417          -19800.00
00418          -19800.00
00419          -19800.00
00420          -19800.00
00421          -19800.00
00422          -19800.00
00423          -19800.00
00424          -19800.00
00425          -19800.00
00426          -19800.00
00427          -19600.00
00428          -19800.00
00429          -19600.00
00430          -19600.00
00431          -19600.00
00432          -19400.00
00433          -19400.00
00434          -19000.00
00435          -19000.00
00436          -19000.00
00437          -18800.00
00438          -18800.00
00439          -18800.00
00440          -18600.00
00441          -18400.00
00442          -18200.00
00443          -18000.00
00444          -17800.00
00445          -17800.00
00446          -17600.00
00447          -17400.00
00448          -17200.00
00449          -17000.00
00450          -16800.00
00451          -16400.00
00452          -16400.00
00453          -16200.00
00454          -15800.00
00455          -15800.00
00456          -15600.00
00457          -15200.00
00458          -15000.00
00459          -14800.00
00460          -14600.00
00461          -14200.00
00462          -14000.00
00463          -13800.00
00464          -13400.00
00465          -13200.00
00466          -13000.00
00467          -12600.00
00468          -12400.00
00469          -12000.00
00470          -11600.00
00471          -11600.00
00472          -11000.00
00473          -10800.00
00474          -10600.00
00475          -10200.00
00476          -10000.00
00477           -9600.00
00478           -9200.00
00479           -9000.00
00480           -8600.00
00481           -8400.00
00482           -7800.00
00483           -7600.00
00484           -7200.00
00485           -7000.00
00486           -6600.00
00487           -6200.00
00488           -5800.00
00489           -5400.00
00490           -5000.00
00491           -4600.00
00492           -4400.00
00493           -3800.00
00494           -3800.00
00495           -3200.00
00496           -2800.00
00497           -2600.00
00498           -2200.00
00499           -2000.00
00500           -1400.00
00501           -1000.00
00502            -600.00
00503            -400.00
00504             200.00
00505             400.00
00506            1000.00
00507            1000.00
00508            1400.00
00509            1800.00
00510            2200.00
00511            2600.00
00512            2800.00
00513            3400.00
00514            3600.00
00515            4200.00
00516            4400.00
00517            5000.00
00518            5200.00
00519            5400.00
00520            5800.00
00521            6000.00
00522            6600.00
00523            6800.00
00524            7000.00
00525            7600.00
00526            8000.00
00527            8200.00
00528            8400.00
00529            8800.00
00530            9200.00
00531            9400.00
00532           10000.00
00533           10000.00
00534           10600.00
00535           10800.00
00536           11000.00
00537           11400.00
00538           11600.00
00539           11800.00
00540           12200.00
00541           12600.00
00542           13000.00
00543           13200.00
00544           13400.00
00545           13800.00
00546           14000.00
00547           14200.00
00548           14600.00
00549           14800.00
00550           15000.00
00551           15400.00
00552           15400.00
00553           15800.00
00554           16000.00
00555           16200.00
00556           16400.00
00557           16600.00
00558           17000.00
00559           17000.00
00560           17200.00
00561           17400.00
00562           17400.00
00563           17800.00
00564           18000.00
00565           18000.00
00566           18200.00
00567           18600.00
00568           18600.00
00569           18600.00
00570           18600.00
00571           18800.00
00572           19000.00
00573           19200.00
00574           19200.00
00575           19400.00
00576           19400.00
00577           19600.00
00578           19600.00
00579           19600.00
00580           19600.00
00581           19600.00
00582           19600.00
00583           19800.00
00584           19600.00
00585           19800.00
00586           19800.00
00587           19800.00
00588           19800.00
00589           19800.00
00590           19800.00
00591           19600.00
00592           19800.00
00593           19800.00
00594           19600.00
00595           19600.00
00596           19600.00
00597           19600.00
00598           19600.00
00599           19400.00
00600           19200.00
00601           19000.00
00602           19000.00
00603           18800.00
00604           18800.00
00605           18600.00
00606           18600.00
00607           18200.00
00608           18200.00
00609           18000.00
00610           17800.00
00611           17800.00
00612           17600.00
00613           17200.00
00614           17200.00
00615           17000.00
00616           17000.00
00617           16600.00
00618           16600.00
00619           16200.00
00620           16000.00
00621           15600.00
00622           15400.00
00623           15400.00
00624           15200.00
00625           14800.00
00626           14600.00
00627           14200.00
00628           14000.00
00629           13800.00
00630           13400.00
00631           13200.00
00632           13000.00
00633           13000.00
00634           12400.00
00635           12200.00
00636           11800.00
00637           11600.00
00638           11400.00
00639           10800.00
00640           10600.00
00641           10400.00
00642           10000.00
00643            9600.00
00644            9200.00
00645            9000.00
00646            8600.00
00647            8400.00
00648            7800.00
00649            7600.00
00650            7400.00
00651            7000.00
00652            6600.00
00653            6000.00
00654            5800.00
00655            5600.00
00656            5200.00
00657            4600.00
00658            4400.00
00659            4200.00
00660            3600.00
00661            3400.00
00662            2800.00
00663            2600.00
00664            2200.00
00665            2000.00
00666            1400.00
00667            1000.00
00668             600.00
00669             400.00
00670            -200.00
00671            -400.00
00672            -800.00
00673           -1000.00
00674           -1400.00
00675           -1800.00
00676           -2000.00
00677           -2400.00
00678           -2800.00
00679           -3000.00
00680           -3600.00
00681           -4400.00
00682           -4600.00
00683           -4800.00
00684           -4600.00
00685           -5200.00
00686           -5800.00
00687           -6000.00
00688           -6400.00
00689           -6800.00
00690           -7000.00
00691           -7600.00
00692           -7800.00
00693           -8200.00
00694           -8600.00
00695           -8600.00
00696           -9200.00
00697           -9400.00
00698           -9800.00
00699          -10200.00
00700          -10400.00
00701          -10800.00
00702          -11000.00
00703          -11400.00
00704          -11800.00
00705          -11800.00
00706          -12400.00
00707          -12600.00
00708          -13000.00
00709          -13200.00
00710          -13400.00
00711          -13600.00
00712          -14000.00
00713          -14200.00
00714          -14600.00
00715          -14800.00
00716          -15000.00
00717          -15400.00
00718          -15400.00
00719          -15800.00
00720          -16000.00
00721          -16200.00
00722          -16400.00
00723          -16600.00
00724          -17200.00
00725          -17200.00
00726          -17200.00
00727          -17200.00
00728          -17800.00
00729          -17800.00
00730          -18000.00
00731          -18000.00
00732          -18200.00
00733          -18200.00
00734          -18400.00
00735          -18800.00
00736          -18800.00
00737          -19000.00
00738          -19000.00
00739          -19000.00
00740          -19400.00
00741          -19400.00
00742          -19400.00
00743          -19400.00
00744          -19600.00
00745          -19600.00
00746          -19800.00
00747          -19800.00
00748          -19800.00
00749          -19800.00
00750          -19800.00
00751          -19800.00
00752          -19800.00
00753          -19800.00
00754          -19800.00
00755          -19800.00
00756          -19800.00
00757          -19800.00
00758          -19600.00
00759          -19800.00
00760          -19600.00
00761          -19600.00
00762          -19600.00
00763          -19400.00
00764          -19400.00
00765          -19200.00
00766          -19000.00
