Unit:(mV)
                     CH1
Frequency    300.953 kHz
00001            1800.00
00002            1400.00
00003            1200.00
00004            1000.00
00005             600.00
00006             200.00
00007            -200.00
00008            -400.00
00009            -600.00
00010           -1000.00
00011           -1200.00
00012           -1400.00
00013           -1800.00
00014           -2000.00
00015           -2200.00
00016           -2600.00
00017           -3200.00
00018           -3800.00
00019           -3800.00
00020           -3800.00
00021           -3800.00
00022           -4600.00
00023           -4600.00
00024           -5000.00
00025           -5400.00
00026           -5600.00
00027           -5800.00
00028           -6200.00
00029           -6600.00
00030           -6800.00
00031           -7000.00
00032           -7400.00
00033           -7600.00
00034           -8200.00
00035           -8200.00
00036           -8600.00
00037           -8600.00
00038           -9000.00
00039           -9200.00
00040           -9400.00
00041           -9800.00
00042          -10000.00
00043          -10200.00
00044          -10600.00
00045          -10800.00
00046          -11000.00
00047          -11200.00
00048          -11600.00
00049          -11600.00
00050          -11800.00
00051          -12200.00
00052          -12400.00
00053          -12400.00
00054          -12600.00
00055          -12800.00
00056          -13200.00
00057          -13200.00
00058          -13400.00
00059          -13400.00
00060          -13800.00
00061          -14000.00
00062          -14000.00
00063          -14000.00
00064          -14200.00
00065          -14600.00
00066          -14800.00
00067          -14600.00
00068          -15000.00
00069          -15000.00
00070          -15000.00
00071          -15200.00
00072          -15400.00
00073          -15400.00
00074          -15600.00
00075          -15600.00
00076          -15600.00
00077          -15600.00
00078          -15800.00
00079          -15600.00
00080          -15800.00
00081          -16000.00
00082          -16200.00
00083          -15800.00
00084          -16000.00
00085          -16200.00
00086          -16200.00
00087          -16200.00
00088          -16200.00
00089          -16400.00
00090          -16200.00
00091          -16200.00
00092          -16200.00
00093          -16200.00
00094          -16200.00
00095          -16000.00
00096          -16000.00
00097          -16200.00
00098          -15800.00
00099          -15800.00
00100          -15800.00
00101          -15800.00
00102          -15800.00
00103          -15800.00
00104          -15600.00
00105          -15600.00
00106          -15600.00
00107          -15400.00
00108          -15400.00
00109          -15400.00
00110          -15000.00
00111          -15000.00
00112          -14800.00
00113          -14800.00
00114          -14600.00
00115          -14200.00
00116          -14200.00
00117          -14000.00
00118          -14000.00
00119          -13800.00
00120          -13400.00
00121          -13400.00
00122          -13400.00
00123          -13000.00
00124          -13000.00
00125          -12600.00
00126          -12400.00
00127          -12400.00
00128          -11800.00
00129          -11800.00
00130          -11600.00
00131          -11400.00
00132          -11000.00
00133          -10800.00
00134          -10800.00
00135          -10600.00
00136          -10200.00
00137          -10000.00
00138           -9800.00
00139           -9600.00
00140           -9400.00
00141           -9200.00
00142           -8800.00
00143           -8600.00
00144           -8400.00
00145           -7800.00
00146           -7600.00
00147           -7600.00
00148           -7200.00
00149           -7000.00
00150           -6600.00
00151           -6200.00
00152           -6000.00
00153           -5800.00
00154           -5400.00
00155           -5200.00
00156           -5000.00
00157           -4600.00
00158           -4400.00
00159           -3800.00
00160           -3800.00
00161           -3400.00
00162           -3000.00
00163           -2800.00
00164           -2800.00
00165           -2200.00
00166           -2000.00
00167           -1600.00
00168           -1200.00
00169           -1200.00
00170            -800.00
00171            -400.00
00172            -200.00
00173             200.00
00174             400.00
00175             600.00
00176            1000.00
00177            1400.00
00178            1400.00
00179            1800.00
00180            2000.00
00181            2200.00
00182            2600.00
00183            3000.00
00184            3600.00
00185            3800.00
00186            3800.00
00187            4200.00
00188            4400.00
00189            4600.00
00190            5000.00
00191            5400.00
00192            5400.00
00193            5800.00
00194            6400.00
00195            6600.00
00196            6800.00
00197            7000.00
00198            7400.00
00199            7600.00
00200            8000.00
00201            8200.00
00202            8400.00
00203            8600.00
00204            9000.00
00205            9200.00
00206            9400.00
00207            9800.00
00208           10000.00
00209           10200.00
00210           10400.00
00211           10800.00
00212           11000.00
00213           11400.00
00214           11400.00
00215           11600.00
00216           11800.00
00217           12200.00
00218           12200.00
00219           12400.00
00220           12600.00
00221           13000.00
00222           13000.00
00223           13200.00
00224           13400.00
00225           13800.00
00226           13800.00
00227           14000.00
00228           14200.00
00229           14200.00
00230           14200.00
00231           14600.00
00232           14600.00
00233           14800.00
00234           14800.00
00235           14800.00
00236           15000.00
00237           15400.00
00238           15400.00
00239           15400.00
00240           15600.00
00241           15600.00
00242           15800.00
00243           15800.00
00244           15800.00
00245           15800.00
00246           15800.00
00247           16200.00
00248           16200.00
00249           16200.00
00250           16200.00
00251           16200.00
00252           16200.00
00253           16400.00
00254           16400.00
00255           16400.00
00256           16400.00
00257           16200.00
00258           16400.00
00259           16400.00
00260           16200.00
00261           16200.00
00262           16200.00
00263           16200.00
00264           16200.00
00265           16000.00
00266           16200.00
00267           16000.00
00268           15800.00
00269           15800.00
00270           15600.00
00271           15600.00
00272           15600.00
00273           15400.00
00274           15400.00
00275           15000.00
00276           15000.00
00277           14800.00
00278           14800.00
00279           14800.00
00280           14600.00
00281           14600.00
00282           14400.00
00283           14200.00
00284           14200.00
00285           13800.00
00286           13800.00
00287           13600.00
00288           13400.00
00289           13200.00
00290           13000.00
00291           12600.00
00292           12600.00
00293           12400.00
00294           12200.00
00295           11800.00
00296           11600.00
00297           11600.00
00298           11400.00
00299           11000.00
00300           10800.00
00301           10600.00
00302           10200.00
00303           10200.00
00304           10000.00
00305            9800.00
00306            9200.00
00307            9200.00
00308            9000.00
00309            8600.00
00310            8400.00
00311            8200.00
00312            7800.00
00313            7600.00
00314            7400.00
00315            7000.00
00316            6800.00
00317            6600.00
00318            6200.00
00319            5800.00
00320            5800.00
00321            5400.00
00322            5200.00
00323            4600.00
00324            4400.00
00325            4200.00
00326            3800.00
00327            3600.00
00328            3200.00
00329            3000.00
00330            2600.00
00331            2600.00
00332            2200.00
00333            2000.00
00334            1400.00
00335            1200.00
00336            1000.00
00337             400.00
00338             400.00
00339             200.00
00340            -400.00
00341            -600.00
00342            -800.00
00343           -1200.00
00344           -1400.00
00345           -1800.00
00346           -2000.00
00347           -2200.00
00348           -2600.00
00349           -3000.00
00350           -3600.00
00351           -3800.00
00352           -3800.00
00353           -3800.00
00354           -4400.00
00355           -4600.00
00356           -5000.00
00357           -5200.00
00358           -5400.00
00359           -5800.00
00360           -6200.00
00361           -6600.00
00362           -6800.00
00363           -7000.00
00364           -7400.00
00365           -7600.00
00366           -8200.00
00367           -8200.00
00368           -8400.00
00369           -8600.00
00370           -8800.00
00371           -9200.00
00372           -9400.00
00373           -9800.00
00374          -10000.00
00375          -10200.00
00376          -10600.00
00377          -10600.00
00378          -10800.00
00379          -11000.00
00380          -11400.00
00381          -11600.00
00382          -11600.00
00383          -12000.00
00384          -12400.00
00385          -12600.00
00386          -12400.00
00387          -12600.00
00388          -13000.00
00389          -13200.00
00390          -13400.00
00391          -13400.00
00392          -13600.00
00393          -13800.00
00394          -14000.00
00395          -14000.00
00396          -14200.00
00397          -14400.00
00398          -14800.00
00399          -14800.00
00400          -15000.00
00401          -15000.00
00402          -15000.00
00403          -15000.00
00404          -15000.00
00405          -15200.00
00406          -15600.00
00407          -15600.00
00408          -15600.00
00409          -15800.00
00410          -15800.00
00411          -15800.00
00412          -15800.00
00413          -16200.00
00414          -15800.00
00415          -16000.00
00416          -16200.00
00417          -16200.00
00418          -16200.00
00419          -16200.00
00420          -16200.00
00421          -16200.00
00422          -16200.00
00423          -16200.00
00424          -16200.00
00425          -16200.00
00426          -16200.00
00427          -16200.00
00428          -16200.00
00429          -15800.00
00430          -16200.00
00431          -16000.00
00432          -15800.00
00433          -15800.00
00434          -15600.00
00435          -15800.00
00436          -15600.00
00437          -15600.00
00438          -15400.00
00439          -15400.00
00440          -15400.00
00441          -15000.00
00442          -15000.00
00443          -15000.00
00444          -14800.00
00445          -14800.00
00446          -14600.00
00447          -14600.00
00448          -14000.00
00449          -14000.00
00450          -14000.00
00451          -13800.00
00452          -13400.00
00453          -13400.00
00454          -13200.00
00455          -13000.00
00456          -12800.00
00457          -12600.00
00458          -12600.00
00459          -12400.00
00460          -12200.00
00461          -11600.00
00462          -11600.00
00463          -11600.00
00464          -11400.00
00465          -11000.00
00466          -10800.00
00467          -10600.00
00468          -10200.00
00469          -10200.00
00470           -9800.00
00471           -9600.00
00472           -9400.00
00473           -9200.00
00474           -8800.00
00475           -8600.00
00476           -8400.00
00477           -8000.00
00478           -7800.00
00479           -7600.00
00480           -7000.00
00481           -7000.00
00482           -6800.00
00483           -6200.00
00484           -6200.00
00485           -6000.00
00486           -5800.00
00487           -5400.00
00488           -5000.00
00489           -4600.00
00490           -4400.00
00491           -4400.00
00492           -4000.00
00493           -3600.00
00494           -3400.00
00495           -2800.00
00496           -2800.00
00497           -2200.00
00498           -2200.00
00499           -1800.00
00500           -1400.00
00501           -1200.00
00502           -1000.00
00503            -600.00
00504            -400.00
00505             200.00
00506             200.00
00507             400.00
00508            1000.00
00509            1200.00
00510            1400.00
00511            1800.00
00512            2000.00
00513            2400.00
00514            2600.00
00515            3000.00
00516            3400.00
00517            3600.00
00518            3800.00
00519            4200.00
00520            4400.00
00521            4600.00
00522            5000.00
00523            5200.00
00524            5800.00
00525            5800.00
00526            6200.00
00527            6600.00
00528            6600.00
00529            7000.00
00530            7400.00
00531            7600.00
00532            8000.00
00533            8200.00
00534            8400.00
00535            8600.00
00536            9000.00
00537            9200.00
00538            9400.00
00539            9800.00
00540           10000.00
00541           10200.00
00542           10400.00
00543           10800.00
00544           10800.00
00545           11000.00
00546           11400.00
00547           11600.00
00548           11800.00
00549           12000.00
00550           12200.00
00551           12400.00
00552           12600.00
00553           12800.00
00554           13000.00
00555           13200.00
00556           13200.00
00557           13400.00
00558           13800.00
00559           13800.00
00560           14000.00
00561           14200.00
00562           14200.00
00563           14600.00
00564           14600.00
00565           14800.00
00566           14800.00
00567           14800.00
00568           15200.00
00569           15000.00
00570           15400.00
00571           15400.00
00572           15600.00
00573           15600.00
00574           15600.00
00575           15800.00
00576           15800.00
00577           15800.00
00578           16200.00
00579           16200.00
00580           16200.00
00581           16200.00
00582           16400.00
00583           16200.00
00584           16400.00
00585           16400.00
00586           16400.00
00587           16400.00
00588           16400.00
00589           16400.00
00590           16200.00
00591           16400.00
00592           16400.00
00593           16400.00
00594           16200.00
00595           16200.00
00596           16200.00
00597           16200.00
00598           16000.00
00599           16200.00
00600           16000.00
00601           15800.00
00602           15800.00
00603           15800.00
00604           15400.00
00605           15400.00
00606           15400.00
00607           15400.00
00608           15200.00
00609           15000.00
00610           15000.00
00611           14800.00
00612           14800.00
00613           14600.00
00614           14200.00
00615           14200.00
00616           14000.00
00617           14000.00
00618           13800.00
00619           13600.00
00620           13200.00
00621           13200.00
00622           13000.00
00623           12800.00
00624           12600.00
00625           12400.00
00626           12200.00
00627           12200.00
00628           11800.00
00629           11600.00
00630           11400.00
00631           11000.00
00632           10800.00
00633           10600.00
00634           10600.00
00635           10200.00
00636           10000.00
00637            9800.00
00638            9400.00
00639            9200.00
00640            9000.00
00641            8800.00
00642            8400.00
00643            8200.00
00644            7800.00
00645            7600.00
00646            7400.00
00647            7000.00
00648            6800.00
00649            6600.00
00650            6200.00
00651            6000.00
00652            5800.00
00653            5400.00
00654            5200.00
00655            5000.00
00656            4400.00
00657            4200.00
00658            4200.00
00659            3600.00
00660            3400.00
00661            3000.00
00662            2800.00
00663            2600.00
00664            2200.00
00665            1800.00
00666            1400.00
00667            1200.00
00668            1000.00
00669             600.00
00670             400.00
00671               0.00
00672            -200.00
00673            -600.00
00674            -600.00
00675           -1000.00
00676           -1200.00
00677           -1800.00
00678           -2000.00
00679           -2200.00
00680           -2600.00
00681           -3000.00
00682           -3400.00
00683           -3800.00
00684           -3800.00
00685           -3800.00
00686           -4200.00
00687           -4600.00
00688           -5000.00
00689           -5200.00
00690           -5800.00
00691           -5800.00
00692           -6000.00
00693           -6600.00
00694           -6600.00
00695           -7000.00
00696           -7000.00
00697           -7400.00
00698           -7800.00
00699           -8000.00
00700           -8400.00
00701           -8600.00
00702           -8800.00
00703           -9200.00
00704           -9400.00
00705           -9400.00
00706           -9800.00
00707          -10000.00
00708          -10400.00
00709          -10600.00
00710          -10800.00
00711          -11000.00
00712          -11400.00
00713          -11400.00
00714          -11600.00
00715          -11800.00
00716          -12200.00
00717          -12400.00
00718          -12600.00
00719          -12600.00
00720          -13000.00
00721          -13200.00
00722          -13200.00
00723          -13400.00
00724          -13600.00
00725          -13800.00
00726          -14000.00
00727          -14000.00
00728          -14200.00
00729          -14200.00
00730          -14800.00
00731          -14600.00
00732          -14800.00
00733          -14800.00
00734          -15000.00
00735          -15000.00
00736          -15000.00
00737          -15400.00
00738          -15600.00
00739          -15600.00
00740          -15600.00
00741          -15600.00
00742          -15800.00
00743          -15800.00
00744          -15800.00
00745          -15800.00
00746          -15800.00
00747          -15800.00
00748          -16200.00
00749          -16200.00
00750          -16200.00
00751          -16200.00
00752          -16200.00
00753          -16200.00
00754          -16200.00
00755          -16200.00
00756          -16200.00
00757          -16200.00
00758          -16200.00
00759          -16400.00
00760          -16200.00
00761          -16200.00
00762          -16000.00
00763          -16200.00
00764          -15800.00
00765          -15800.00
00766          -15800.00
