Unit:(mV)
                     CH1
Frequency    301.191 kHz
00001            1400.00
00002            1200.00
00003            1200.00
00004             600.00
00005             600.00
00006             400.00
00007             200.00
00008             200.00
00009            -200.00
00010            -400.00
00011            -600.00
00012            -600.00
00013           -1000.00
00014           -1000.00
00015           -1200.00
00016           -1200.00
00017           -1400.00
00018           -1800.00
00019           -2200.00
00020           -2200.00
00021           -2200.00
00022           -2200.00
00023           -2800.00
00024           -3000.00
00025           -3000.00
00026           -3400.00
00027           -3800.00
00028           -3600.00
00029           -3800.00
00030           -4200.00
00031           -4200.00
00032           -4400.00
00033           -4600.00
00034           -4600.00
00035           -5000.00
00036           -5200.00
00037           -5200.00
00038           -5400.00
00039           -5800.00
00040           -5800.00
00041           -6000.00
00042           -6200.00
00043           -6200.00
00044           -6400.00
00045           -6600.00
00046           -6800.00
00047           -7000.00
00048           -7000.00
00049           -7400.00
00050           -7400.00
00051           -7600.00
00052           -7600.00
00053           -8000.00
00054           -7800.00
00055           -8200.00
00056           -8200.00
00057           -8400.00
00058           -8600.00
00059           -8600.00
00060           -8800.00
00061           -8600.00
00062           -8600.00
00063           -9000.00
00064           -9200.00
00065           -9200.00
00066           -9200.00
00067           -9200.00
00068           -9400.00
00069           -9400.00
00070           -9400.00
00071           -9800.00
00072           -9800.00
00073           -9800.00
00074          -10000.00
00075          -10000.00
00076          -10000.00
00077          -10000.00
00078          -10000.00
00079          -10200.00
00080          -10200.00
00081          -10200.00
00082          -10200.00
00083          -10200.00
00084          -10200.00
00085          -10200.00
00086          -10200.00
00087          -10200.00
00088          -10200.00
00089          -10200.00
00090          -10200.00
00091          -10200.00
00092          -10200.00
00093          -10200.00
00094          -10200.00
00095          -10600.00
00096          -10200.00
00097          -10200.00
00098          -10200.00
00099          -10200.00
00100          -10200.00
00101          -10200.00
00102          -10200.00
00103          -10200.00
00104          -10200.00
00105          -10000.00
00106          -10000.00
00107          -10000.00
00108          -10000.00
00109           -9800.00
00110           -9600.00
00111           -9400.00
00112           -9400.00
00113           -9400.00
00114           -9400.00
00115           -9200.00
00116           -9200.00
00117           -9200.00
00118           -9200.00
00119           -9000.00
00120           -8800.00
00121           -8600.00
00122           -8600.00
00123           -8600.00
00124           -8600.00
00125           -8400.00
00126           -8400.00
00127           -8200.00
00128           -8200.00
00129           -7800.00
00130           -7600.00
00131           -7600.00
00132           -7400.00
00133           -7400.00
00134           -7000.00
00135           -7000.00
00136           -7000.00
00137           -6800.00
00138           -6600.00
00139           -6600.00
00140           -6200.00
00141           -6000.00
00142           -6000.00
00143           -5800.00
00144           -5600.00
00145           -5400.00
00146           -5200.00
00147           -5000.00
00148           -4800.00
00149           -4600.00
00150           -4400.00
00151           -4400.00
00152           -4200.00
00153           -4000.00
00154           -3800.00
00155           -3600.00
00156           -3600.00
00157           -3400.00
00158           -3000.00
00159           -3000.00
00160           -2800.00
00161           -2600.00
00162           -2200.00
00163           -2200.00
00164           -2000.00
00165           -1600.00
00166           -1400.00
00167           -1200.00
00168           -1200.00
00169           -1000.00
00170            -600.00
00171            -600.00
00172            -400.00
00173            -200.00
00174            -200.00
00175             200.00
00176             400.00
00177             600.00
00178             600.00
00179             800.00
00180            1000.00
00181            1200.00
00182            1400.00
00183            1400.00
00184            1800.00
00185            2000.00
00186            2200.00
00187            2400.00
00188            2600.00
00189            2800.00
00190            2800.00
00191            3000.00
00192            3400.00
00193            3600.00
00194            3600.00
00195            3800.00
00196            4200.00
00197            4200.00
00198            4400.00
00199            4600.00
00200            4800.00
00201            5000.00
00202            5200.00
00203            5200.00
00204            5400.00
00205            5800.00
00206            5800.00
00207            6000.00
00208            6200.00
00209            6600.00
00210            6600.00
00211            6600.00
00212            6800.00
00213            7000.00
00214            7000.00
00215            7400.00
00216            7400.00
00217            7600.00
00218            7800.00
00219            7800.00
00220            7800.00
00221            8200.00
00222            8400.00
00223            8400.00
00224            8400.00
00225            8600.00
00226            8600.00
00227            8600.00
00228            9000.00
00229            9000.00
00230            9000.00
00231            9200.00
00232            9200.00
00233            9400.00
00234            9600.00
00235            9400.00
00236            9800.00
00237            9600.00
00238            9800.00
00239           10000.00
00240           10000.00
00241           10000.00
00242           10000.00
00243           10000.00
00244           10000.00
00245           10000.00
00246           10200.00
00247           10200.00
00248           10400.00
00249           10200.00
00250           10200.00
00251           10400.00
00252           10400.00
00253           10400.00
00254           10400.00
00255           10200.00
00256           10600.00
00257           10200.00
00258           10400.00
00259           10600.00
00260           10600.00
00261           10200.00
00262           10600.00
00263           10200.00
00264           10200.00
00265           10600.00
00266           10200.00
00267           10200.00
00268           10200.00
00269           10200.00
00270           10000.00
00271           10000.00
00272           10000.00
00273           10000.00
00274           10000.00
00275            9800.00
00276            9800.00
00277            9800.00
00278            9400.00
00279            9600.00
00280            9400.00
00281            9200.00
00282            9400.00
00283            9200.00
00284            9200.00
00285            9000.00
00286            9000.00
00287            8600.00
00288            8800.00
00289            8600.00
00290            8600.00
00291            8400.00
00292            8400.00
00293            8200.00
00294            8200.00
00295            7800.00
00296            7800.00
00297            7600.00
00298            7600.00
00299            7400.00
00300            7200.00
00301            7000.00
00302            6800.00
00303            6800.00
00304            6800.00
00305            6600.00
00306            6400.00
00307            6000.00
00308            6000.00
00309            5800.00
00310            5800.00
00311            5400.00
00312            5200.00
00313            5200.00
00314            5000.00
00315            4600.00
00316            4400.00
00317            4200.00
00318            4400.00
00319            4000.00
00320            3800.00
00321            3600.00
00322            3600.00
00323            3400.00
00324            3000.00
00325            3000.00
00326            2800.00
00327            2600.00
00328            2600.00
00329            2000.00
00330            2000.00
00331            1800.00
00332            1800.00
00333            1400.00
00334            1000.00
00335            1200.00
00336             800.00
00337             600.00
00338             400.00
00339             400.00
00340             200.00
00341            -200.00
00342            -200.00
00343            -400.00
00344            -600.00
00345            -600.00
00346           -1000.00
00347           -1200.00
00348           -1200.00
00349           -1400.00
00350           -2000.00
00351           -2200.00
00352           -2400.00
00353           -2200.00
00354           -2200.00
00355           -2800.00
00356           -3000.00
00357           -3000.00
00358           -3200.00
00359           -3600.00
00360           -3400.00
00361           -3800.00
00362           -4200.00
00363           -4200.00
00364           -4400.00
00365           -4600.00
00366           -4800.00
00367           -5000.00
00368           -5200.00
00369           -5200.00
00370           -5400.00
00371           -5800.00
00372           -5800.00
00373           -6000.00
00374           -6200.00
00375           -6200.00
00376           -6600.00
00377           -6800.00
00378           -6800.00
00379           -7000.00
00380           -7000.00
00381           -7400.00
00382           -7400.00
00383           -7600.00
00384           -7600.00
00385           -7800.00
00386           -7800.00
00387           -8200.00
00388           -8200.00
00389           -8400.00
00390           -8600.00
00391           -8600.00
00392           -8600.00
00393           -8600.00
00394           -9000.00
00395           -9000.00
00396           -9200.00
00397           -9200.00
00398           -9400.00
00399           -9400.00
00400           -9400.00
00401           -9400.00
00402           -9400.00
00403           -9400.00
00404           -9800.00
00405           -9400.00
00406           -9800.00
00407          -10000.00
00408          -10000.00
00409          -10000.00
00410          -10200.00
00411          -10000.00
00412          -10200.00
00413          -10200.00
00414          -10200.00
00415          -10200.00
00416          -10200.00
00417          -10200.00
00418          -10200.00
00419          -10200.00
00420          -10200.00
00421          -10200.00
00422          -10400.00
00423          -10200.00
00424          -10400.00
00425          -10400.00
00426          -10400.00
00427          -10200.00
00428          -10200.00
00429          -10200.00
00430          -10200.00
00431          -10200.00
00432          -10200.00
00433          -10200.00
00434          -10000.00
00435          -10200.00
00436          -10000.00
00437          -10200.00
00438          -10000.00
00439          -10000.00
00440          -10000.00
00441           -9800.00
00442           -9800.00
00443           -9400.00
00444           -9400.00
00445           -9400.00
00446           -9400.00
00447           -9400.00
00448           -9200.00
00449           -9200.00
00450           -9000.00
00451           -9200.00
00452           -9000.00
00453           -8800.00
00454           -8600.00
00455           -8600.00
00456           -8600.00
00457           -8400.00
00458           -8200.00
00459           -8400.00
00460           -7800.00
00461           -7800.00
00462           -7600.00
00463           -7600.00
00464           -7600.00
00465           -7400.00
00466           -7000.00
00467           -7000.00
00468           -6800.00
00469           -6800.00
00470           -6600.00
00471           -6200.00
00472           -6200.00
00473           -6000.00
00474           -6000.00
00475           -5800.00
00476           -5400.00
00477           -5400.00
00478           -5200.00
00479           -5000.00
00480           -5000.00
00481           -4600.00
00482           -4400.00
00483           -4400.00
00484           -4200.00
00485           -4200.00
00486           -3800.00
00487           -3800.00
00488           -3400.00
00489           -3200.00
00490           -3000.00
00491           -3000.00
00492           -2800.00
00493           -2600.00
00494           -2200.00
00495           -2000.00
00496           -2000.00
00497           -1800.00
00498           -1400.00
00499           -1400.00
00500           -1200.00
00501           -1000.00
00502            -600.00
00503            -600.00
00504            -400.00
00505            -200.00
00506            -200.00
00507             200.00
00508             400.00
00509             400.00
00510             600.00
00511             800.00
00512            1000.00
00513            1200.00
00514            1400.00
00515            1800.00
00516            1800.00
00517            2200.00
00518            2400.00
00519            2600.00
00520            2600.00
00521            2800.00
00522            3000.00
00523            3000.00
00524            3400.00
00525            3600.00
00526            3600.00
00527            3800.00
00528            4200.00
00529            4200.00
00530            4400.00
00531            4600.00
00532            4800.00
00533            5200.00
00534            5200.00
00535            5400.00
00536            5600.00
00537            5800.00
00538            6000.00
00539            6000.00
00540            6000.00
00541            6400.00
00542            6600.00
00543            6800.00
00544            6800.00
00545            7000.00
00546            7000.00
00547            7400.00
00548            7400.00
00549            7600.00
00550            7800.00
00551            7800.00
00552            8000.00
00553            8000.00
00554            8200.00
00555            8400.00
00556            8600.00
00557            8600.00
00558            8600.00
00559            8800.00
00560            9000.00
00561            9000.00
00562            9000.00
00563            9200.00
00564            9200.00
00565            9400.00
00566            9400.00
00567            9400.00
00568            9400.00
00569            9600.00
00570            9800.00
00571            9800.00
00572           10000.00
00573           10000.00
00574           10000.00
00575           10000.00
00576           10000.00
00577           10200.00
00578           10200.00
00579           10200.00
00580           10200.00
00581           10200.00
00582           10200.00
00583           10400.00
00584           10400.00
00585           10200.00
00586           10600.00
00587           10600.00
00588           10400.00
00589           10600.00
00590           10200.00
00591           10600.00
00592           10400.00
00593           10400.00
00594           10200.00
00595           10600.00
00596           10400.00
00597           10200.00
00598           10200.00
00599           10200.00
00600           10200.00
00601           10200.00
00602           10000.00
00603           10000.00
00604           10000.00
00605           10000.00
00606           10000.00
00607           10000.00
00608            9800.00
00609            9800.00
00610            9800.00
00611            9800.00
00612            9400.00
00613            9400.00
00614            9200.00
00615            9200.00
00616            9200.00
00617            9000.00
00618            9000.00
00619            8800.00
00620            8600.00
00621            8600.00
00622            8400.00
00623            8400.00
00624            8200.00
00625            8200.00
00626            8200.00
00627            7800.00
00628            7800.00
00629            7600.00
00630            7600.00
00631            7400.00
00632            7400.00
00633            7000.00
00634            6800.00
00635            6600.00
00636            6600.00
00637            6600.00
00638            6200.00
00639            6000.00
00640            5800.00
00641            5800.00
00642            5800.00
00643            5600.00
00644            5200.00
00645            5200.00
00646            5000.00
00647            4800.00
00648            4400.00
00649            4400.00
00650            4200.00
00651            4200.00
00652            3600.00
00653            3600.00
00654            3600.00
00655            3400.00
00656            3000.00
00657            3000.00
00658            2600.00
00659            2600.00
00660            2400.00
00661            2200.00
00662            2000.00
00663            1800.00
00664            1800.00
00665            1400.00
00666            1400.00
00667            1000.00
00668            1000.00
00669             600.00
00670             400.00
00671             400.00
00672             200.00
00673            -200.00
00674            -200.00
00675            -400.00
00676            -600.00
00677            -600.00
00678           -1200.00
00679           -1200.00
00680           -1200.00
00681           -1600.00
00682           -1800.00
00683           -2200.00
00684           -2200.00
00685           -2200.00
00686           -2200.00
00687           -2800.00
00688           -3000.00
00689           -2800.00
00690           -3400.00
00691           -3600.00
00692           -3600.00
00693           -3800.00
00694           -4200.00
00695           -4400.00
00696           -4400.00
00697           -4600.00
00698           -5000.00
00699           -5000.00
00700           -5200.00
00701           -5200.00
00702           -5400.00
00703           -6000.00
00704           -5800.00
00705           -6000.00
00706           -6200.00
00707           -6200.00
00708           -6600.00
00709           -6600.00
00710           -6800.00
00711           -7000.00
00712           -7000.00
00713           -7200.00
00714           -7400.00
00715           -7400.00
00716           -7600.00
00717           -7600.00
00718           -7800.00
00719           -8000.00
00720           -8200.00
00721           -8400.00
00722           -8400.00
00723           -8600.00
00724           -8600.00
00725           -8600.00
00726           -9000.00
00727           -9000.00
00728           -9000.00
00729           -9000.00
00730           -9200.00
00731           -9200.00
00732           -9400.00
00733           -9400.00
00734           -9400.00
00735           -9800.00
00736           -9800.00
00737           -9800.00
00738          -10000.00
00739          -10000.00
00740          -10000.00
00741          -10000.00
00742          -10000.00
00743          -10000.00
00744          -10000.00
00745          -10200.00
00746          -10200.00
00747          -10200.00
00748          -10200.00
00749          -10200.00
00750          -10200.00
00751          -10200.00
00752          -10200.00
00753          -10200.00
00754          -10400.00
00755          -10400.00
00756          -10200.00
00757          -10400.00
00758          -10400.00
00759          -10200.00
00760          -10200.00
00761          -10200.00
00762          -10200.00
00763          -10200.00
00764          -10200.00
00765          -10200.00
00766          -10200.00
