Unit:(mV)
                     CH1
Frequency    301.575 kHz
00001            5200.00
00002            4600.00
00003            4200.00
00004            3600.00
00005            2800.00
00006            2200.00
00007            1800.00
00008            1200.00
00009             600.00
00010             200.00
00011            -600.00
00012           -1000.00
00013           -1400.00
00014           -2000.00
00015           -2600.00
00016           -3000.00
00017           -3400.00
00018           -3800.00
00019           -4400.00
00020           -5400.00
00021           -6200.00
00022           -6800.00
00023           -7000.00
00024           -7400.00
00025           -7600.00
00026           -8400.00
00027           -9000.00
00028           -9400.00
00029          -10000.00
00030          -10400.00
00031          -11000.00
00032          -11600.00
00033          -12200.00
00034          -12400.00
00035          -13000.00
00036          -13400.00
00037          -14000.00
00038          -14600.00
00039          -15000.00
00040          -15600.00
00041          -16000.00
00042          -16600.00
00043          -17000.00
00044          -17400.00
00045          -17800.00
00046          -18200.00
00047          -18800.00
00048          -19000.00
00049          -19600.00
00050          -20000.00
00051          -20400.00
00052          -20600.00
00053          -21200.00
00054          -21800.00
00055          -22000.00
00056          -22600.00
00057          -22800.00
00058          -23200.00
00059          -23600.00
00060          -23800.00
00061          -24200.00
00062          -24600.00
00063          -24600.00
00064          -25000.00
00065          -25000.00
00066          -25000.00
00067          -25000.00
00068          -25000.00
00069          -25000.00
00070          -25000.00
00071          -25000.00
00072          -25000.00
00073          -25000.00
00074          -25000.00
00075          -25000.00
00076          -25000.00
00077          -25000.00
00078          -25000.00
00079          -25000.00
00080          -25000.00
00081          -25000.00
00082          -25000.00
00083          -25000.00
00084          -25000.00
00085          -25000.00
00086          -25000.00
00087          -25000.00
00088          -25000.00
00089          -25000.00
00090          -25000.00
00091          -25000.00
00092          -25000.00
00093          -25000.00
00094          -25000.00
00095          -25000.00
00096          -25000.00
00097          -25000.00
00098          -25000.00
00099          -25000.00
00100          -25000.00
00101          -25000.00
00102          -25000.00
00103          -25000.00
00104          -25000.00
00105          -25000.00
00106          -25000.00
00107          -25000.00
00108          -25000.00
00109          -25000.00
00110          -25000.00
00111          -25000.00
00112          -25000.00
00113          -25000.00
00114          -25000.00
00115          -25000.00
00116          -25000.00
00117          -25000.00
00118          -25000.00
00119          -25000.00
00120          -25000.00
00121          -25000.00
00122          -25000.00
00123          -24600.00
00124          -24600.00
00125          -24200.00
00126          -23800.00
00127          -23600.00
00128          -23200.00
00129          -23000.00
00130          -22600.00
00131          -22200.00
00132          -21800.00
00133          -21400.00
00134          -21000.00
00135          -20600.00
00136          -20400.00
00137          -19800.00
00138          -19600.00
00139          -19000.00
00140          -18600.00
00141          -18200.00
00142          -17800.00
00143          -17200.00
00144          -16600.00
00145          -16400.00
00146          -15800.00
00147          -15400.00
00148          -14800.00
00149          -14400.00
00150          -14000.00
00151          -13400.00
00152          -12800.00
00153          -12400.00
00154          -11800.00
00155          -11400.00
00156          -10800.00
00157          -10200.00
00158           -9800.00
00159           -9200.00
00160           -8600.00
00161           -8200.00
00162           -7600.00
00163           -7000.00
00164           -6600.00
00165           -6000.00
00166           -5400.00
00167           -4800.00
00168           -4400.00
00169           -3800.00
00170           -3400.00
00171           -2600.00
00172           -2200.00
00173           -1800.00
00174           -1000.00
00175            -400.00
00176             200.00
00177             400.00
00178            1200.00
00179            1800.00
00180            2200.00
00181            2600.00
00182            3000.00
00183            3600.00
00184            4200.00
00185            4600.00
00186            5400.00
00187            6000.00
00188            6600.00
00189            7000.00
00190            7400.00
00191            7800.00
00192            8600.00
00193            9000.00
00194            9400.00
00195           10000.00
00196           10600.00
00197           11000.00
00198           11600.00
00199           12200.00
00200           12600.00
00201           13000.00
00202           13800.00
00203           14200.00
00204           14600.00
00205           15200.00
00206           15600.00
00207           16200.00
00208           16400.00
00209           17000.00
00210           17400.00
00211           18000.00
00212           18200.00
00213           18800.00
00214           19400.00
00215           19800.00
00216           20200.00
00217           20400.00
00218           21000.00
00219           21400.00
00220           21800.00
00221           22000.00
00222           22600.00
00223           23000.00
00224           23200.00
00225           23600.00
00226           23800.00
00227           24400.00
00228           24600.00
00229           25000.00
00230           25000.00
00231           25000.00
00232           25000.00
00233           25000.00
00234           25000.00
00235           25000.00
00236           25000.00
00237           25000.00
00238           25000.00
00239           25000.00
00240           25000.00
00241           25000.00
00242           25000.00
00243           25000.00
00244           25000.00
00245           25000.00
00246           25000.00
00247           25000.00
00248           25000.00
00249           25000.00
00250           25000.00
00251           25000.00
00252           25000.00
00253           25000.00
00254           25000.00
00255           25000.00
00256           25000.00
00257           25000.00
00258           25000.00
00259           25000.00
00260           25000.00
00261           25000.00
00262           25000.00
00263           25000.00
00264           25000.00
00265           25000.00
00266           25000.00
00267           25000.00
00268           25000.00
00269           25000.00
00270           25000.00
00271           25000.00
00272           25000.00
00273           25000.00
00274           25000.00
00275           25000.00
00276           25000.00
00277           25000.00
00278           25000.00
00279           25000.00
00280           25000.00
00281           25000.00
00282           25000.00
00283           25000.00
00284           25000.00
00285           25000.00
00286           25000.00
00287           25000.00
00288           25000.00
00289           24800.00
00290           24600.00
00291           24200.00
00292           23800.00
00293           23400.00
00294           23200.00
00295           23000.00
00296           22600.00
00297           22200.00
00298           21800.00
00299           21400.00
00300           21200.00
00301           20600.00
00302           20200.00
00303           19600.00
00304           19400.00
00305           19000.00
00306           18600.00
00307           18000.00
00308           17800.00
00309           17200.00
00310           17000.00
00311           16400.00
00312           15800.00
00313           15400.00
00314           14800.00
00315           14600.00
00316           13800.00
00317           13200.00
00318           13000.00
00319           12400.00
00320           11800.00
00321           11400.00
00322           10600.00
00323           10200.00
00324            9800.00
00325            9200.00
00326            8600.00
00327            8200.00
00328            7400.00
00329            7000.00
00330            6600.00
00331            5800.00
00332            5400.00
00333            5000.00
00334            4200.00
00335            3600.00
00336            3400.00
00337            2600.00
00338            2200.00
00339            1400.00
00340            1000.00
00341             400.00
00342            -200.00
00343            -600.00
00344           -1200.00
00345           -1600.00
00346           -2200.00
00347           -2800.00
00348           -3000.00
00349           -3600.00
00350           -4000.00
00351           -5000.00
00352           -5600.00
00353           -6400.00
00354           -6800.00
00355           -7000.00
00356           -7400.00
00357           -7800.00
00358           -8600.00
00359           -9200.00
00360           -9600.00
00361          -10200.00
00362          -10600.00
00363          -11400.00
00364          -11600.00
00365          -12200.00
00366          -12600.00
00367          -13200.00
00368          -14000.00
00369          -14200.00
00370          -14800.00
00371          -15000.00
00372          -15600.00
00373          -16200.00
00374          -16600.00
00375          -17200.00
00376          -17600.00
00377          -18000.00
00378          -18600.00
00379          -19000.00
00380          -19400.00
00381          -19800.00
00382          -20400.00
00383          -20600.00
00384          -21200.00
00385          -21400.00
00386          -21800.00
00387          -22200.00
00388          -22600.00
00389          -23000.00
00390          -23400.00
00391          -23600.00
00392          -24000.00
00393          -24400.00
00394          -24600.00
00395          -25000.00
00396          -25000.00
00397          -25000.00
00398          -25000.00
00399          -25000.00
00400          -25000.00
00401          -25000.00
00402          -25000.00
00403          -25000.00
00404          -25000.00
00405          -25000.00
00406          -25000.00
00407          -25000.00
00408          -25000.00
00409          -25000.00
00410          -25000.00
00411          -25000.00
00412          -25000.00
00413          -25000.00
00414          -25000.00
00415          -25000.00
00416          -25000.00
00417          -25000.00
00418          -25000.00
00419          -25000.00
00420          -25000.00
00421          -25000.00
00422          -25000.00
00423          -25000.00
00424          -25000.00
00425          -25000.00
00426          -25000.00
00427          -25000.00
00428          -25000.00
00429          -25000.00
00430          -25000.00
00431          -25000.00
00432          -25000.00
00433          -25000.00
00434          -25000.00
00435          -25000.00
00436          -25000.00
00437          -25000.00
00438          -25000.00
00439          -25000.00
00440          -25000.00
00441          -25000.00
00442          -25000.00
00443          -25000.00
00444          -25000.00
00445          -25000.00
00446          -25000.00
00447          -25000.00
00448          -25000.00
00449          -25000.00
00450          -25000.00
00451          -25000.00
00452          -25000.00
00453          -25000.00
00454          -25000.00
00455          -24600.00
00456          -24600.00
00457          -24200.00
00458          -23800.00
00459          -23600.00
00460          -23000.00
00461          -22800.00
00462          -22400.00
00463          -22000.00
00464          -21600.00
00465          -21400.00
00466          -20600.00
00467          -20400.00
00468          -20200.00
00469          -19800.00
00470          -19400.00
00471          -18800.00
00472          -18600.00
00473          -18000.00
00474          -17400.00
00475          -17200.00
00476          -16600.00
00477          -16200.00
00478          -15600.00
00479          -15000.00
00480          -14600.00
00481          -14200.00
00482          -13800.00
00483          -13200.00
00484          -12600.00
00485          -12400.00
00486          -11600.00
00487          -11000.00
00488          -10800.00
00489          -10000.00
00490           -9400.00
00491           -9000.00
00492           -8600.00
00493           -8000.00
00494           -7600.00
00495           -6800.00
00496           -6200.00
00497           -5800.00
00498           -5200.00
00499           -4600.00
00500           -4200.00
00501           -3600.00
00502           -3000.00
00503           -2600.00
00504           -2000.00
00505           -1400.00
00506            -800.00
00507            -400.00
00508             400.00
00509            1000.00
00510            1200.00
00511            2000.00
00512            2200.00
00513            2600.00
00514            3400.00
00515            3800.00
00516            4200.00
00517            5000.00
00518            5800.00
00519            6200.00
00520            6800.00
00521            7400.00
00522            7600.00
00523            8200.00
00524            8600.00
00525            9200.00
00526            9800.00
00527           10200.00
00528           10800.00
00529           11400.00
00530           11800.00
00531           12200.00
00532           13000.00
00533           13400.00
00534           13800.00
00535           14400.00
00536           14800.00
00537           15400.00
00538           15800.00
00539           16400.00
00540           17000.00
00541           17400.00
00542           17800.00
00543           18200.00
00544           18600.00
00545           19000.00
00546           19600.00
00547           20000.00
00548           20400.00
00549           21000.00
00550           21200.00
00551           21600.00
00552           22000.00
00553           22600.00
00554           22800.00
00555           23000.00
00556           23400.00
00557           23600.00
00558           24200.00
00559           24400.00
00560           24600.00
00561           25000.00
00562           25000.00
00563           25000.00
00564           25000.00
00565           25000.00
00566           25000.00
00567           25000.00
00568           25000.00
00569           25000.00
00570           25000.00
00571           25000.00
00572           25000.00
00573           25000.00
00574           25000.00
00575           25000.00
00576           25000.00
00577           25000.00
00578           25000.00
00579           25000.00
00580           25000.00
00581           25000.00
00582           25000.00
00583           25000.00
00584           25000.00
00585           25000.00
00586           25000.00
00587           25000.00
00588           25000.00
00589           25000.00
00590           25000.00
00591           25000.00
00592           25000.00
00593           25000.00
00594           25000.00
00595           25000.00
00596           25000.00
00597           25000.00
00598           25000.00
00599           25000.00
00600           25000.00
00601           25000.00
00602           25000.00
00603           25000.00
00604           25000.00
00605           25000.00
00606           25000.00
00607           25000.00
00608           25000.00
00609           25000.00
00610           25000.00
00611           25000.00
00612           25000.00
00613           25000.00
00614           25000.00
00615           25000.00
00616           25000.00
00617           25000.00
00618           25000.00
00619           25000.00
00620           25000.00
00621           24600.00
00622           24400.00
00623           24200.00
00624           23800.00
00625           23400.00
00626           23000.00
00627           22800.00
00628           22200.00
00629           22000.00
00630           21400.00
00631           21200.00
00632           21000.00
00633           20400.00
00634           20200.00
00635           19600.00
00636           19400.00
00637           18800.00
00638           18400.00
00639           18000.00
00640           17400.00
00641           17000.00
00642           16400.00
00643           16200.00
00644           15400.00
00645           15000.00
00646           14600.00
00647           14200.00
00648           13800.00
00649           13200.00
00650           12600.00
00651           12200.00
00652           11600.00
00653           11000.00
00654           10600.00
00655           10000.00
00656            9400.00
00657            9000.00
00658            8400.00
00659            7800.00
00660            7400.00
00661            6800.00
00662            6200.00
00663            5800.00
00664            5200.00
00665            4600.00
00666            4200.00
00667            3600.00
00668            3000.00
00669            2600.00
00670            2000.00
00671            1600.00
00672            1000.00
00673             200.00
00674            -400.00
00675            -800.00
00676           -1200.00
00677           -2000.00
00678           -2200.00
00679           -2800.00
00680           -3400.00
00681           -3800.00
00682           -4400.00
00683           -5000.00
00684           -6000.00
00685           -6600.00
00686           -6800.00
00687           -7000.00
00688           -7400.00
00689           -8200.00
00690           -9000.00
00691           -9200.00
00692          -10000.00
00693          -10200.00
00694          -10800.00
00695          -11400.00
00696          -11800.00
00697          -12400.00
00698          -13000.00
00699          -13400.00
00700          -13800.00
00701          -14600.00
00702          -15000.00
00703          -15400.00
00704          -15800.00
00705          -16400.00
00706          -17000.00
00707          -17400.00
00708          -17800.00
00709          -18200.00
00710          -18800.00
00711          -19200.00
00712          -19600.00
00713          -19800.00
00714          -20400.00
00715          -20600.00
00716          -21200.00
00717          -21600.00
00718          -22000.00
00719          -22200.00
00720          -22800.00
00721          -23000.00
00722          -23400.00
00723          -23800.00
00724          -24200.00
00725          -24400.00
00726          -24600.00
00727          -25000.00
00728          -25000.00
00729          -25000.00
00730          -25000.00
00731          -25000.00
00732          -25000.00
00733          -25000.00
00734          -25000.00
00735          -25000.00
00736          -25000.00
00737          -25000.00
00738          -25000.00
00739          -25000.00
00740          -25000.00
00741          -25000.00
00742          -25000.00
00743          -25000.00
00744          -25000.00
00745          -25000.00
00746          -25000.00
00747          -25000.00
00748          -25000.00
00749          -25000.00
00750          -25000.00
00751          -25000.00
00752          -25000.00
00753          -25000.00
00754          -25000.00
00755          -25000.00
00756          -25000.00
00757          -25000.00
00758          -25000.00
00759          -25000.00
00760          -25000.00
00761          -25000.00
00762          -25000.00
00763          -25000.00
00764          -25000.00
00765          -25000.00
00766          -25000.00
