Unit:(mV)
                     CH1
Frequency    300.960 kHz
00001            1400.00
00002            1200.00
00003            1000.00
00004             600.00
00005             200.00
00006            -200.00
00007            -400.00
00008           -1000.00
00009           -1000.00
00010           -1400.00
00011           -1800.00
00012           -2000.00
00013           -2200.00
00014           -2600.00
00015           -2800.00
00016           -3600.00
00017           -4200.00
00018           -4200.00
00019           -4200.00
00020           -4400.00
00021           -5000.00
00022           -5200.00
00023           -5400.00
00024           -6000.00
00025           -6200.00
00026           -6200.00
00027           -7000.00
00028           -7000.00
00029           -7400.00
00030           -7800.00
00031           -8000.00
00032           -8400.00
00033           -8600.00
00034           -9000.00
00035           -9400.00
00036           -9400.00
00037           -9800.00
00038          -10200.00
00039          -10200.00
00040          -10600.00
00041          -10800.00
00042          -11000.00
00043          -11600.00
00044          -11600.00
00045          -12200.00
00046          -12200.00
00047          -12600.00
00048          -12600.00
00049          -13000.00
00050          -13200.00
00051          -13400.00
00052          -13600.00
00053          -13800.00
00054          -14200.00
00055          -14200.00
00056          -14600.00
00057          -14800.00
00058          -15000.00
00059          -15000.00
00060          -15200.00
00061          -15400.00
00062          -15600.00
00063          -15800.00
00064          -15800.00
00065          -16000.00
00066          -16200.00
00067          -16400.00
00068          -16400.00
00069          -16600.00
00070          -16600.00
00071          -16600.00
00072          -16800.00
00073          -17000.00
00074          -17200.00
00075          -17200.00
00076          -17200.00
00077          -17400.00
00078          -17400.00
00079          -17600.00
00080          -17400.00
00081          -17600.00
00082          -17400.00
00083          -17800.00
00084          -17800.00
00085          -17800.00
00086          -17800.00
00087          -17600.00
00088          -17800.00
00089          -17600.00
00090          -17800.00
00091          -17800.00
00092          -17800.00
00093          -17600.00
00094          -17800.00
00095          -17600.00
00096          -17600.00
00097          -17400.00
00098          -17400.00
00099          -17400.00
00100          -17400.00
00101          -17200.00
00102          -17200.00
00103          -17200.00
00104          -17200.00
00105          -17000.00
00106          -17000.00
00107          -16800.00
00108          -16600.00
00109          -16600.00
00110          -16400.00
00111          -16200.00
00112          -16200.00
00113          -15800.00
00114          -15800.00
00115          -15600.00
00116          -15600.00
00117          -15200.00
00118          -15000.00
00119          -15000.00
00120          -14800.00
00121          -14800.00
00122          -14200.00
00123          -14000.00
00124          -14000.00
00125          -13800.00
00126          -13600.00
00127          -13200.00
00128          -13000.00
00129          -13000.00
00130          -12600.00
00131          -12400.00
00132          -12000.00
00133          -11800.00
00134          -11600.00
00135          -11000.00
00136          -11000.00
00137          -10800.00
00138          -10600.00
00139          -10200.00
00140          -10000.00
00141           -9600.00
00142           -9400.00
00143           -9200.00
00144           -9000.00
00145           -8600.00
00146           -8200.00
00147           -8000.00
00148           -7600.00
00149           -7400.00
00150           -7000.00
00151           -6800.00
00152           -6200.00
00153           -6000.00
00154           -5800.00
00155           -5400.00
00156           -5000.00
00157           -4600.00
00158           -4400.00
00159           -4400.00
00160           -3800.00
00161           -3400.00
00162           -3000.00
00163           -2800.00
00164           -2600.00
00165           -2000.00
00166           -1800.00
00167           -1400.00
00168           -1200.00
00169            -800.00
00170            -600.00
00171            -400.00
00172             200.00
00173             400.00
00174             600.00
00175            1000.00
00176            1200.00
00177            1600.00
00178            2000.00
00179            2200.00
00180            2600.00
00181            2800.00
00182            3400.00
00183            3800.00
00184            4200.00
00185            4200.00
00186            4400.00
00187            4600.00
00188            5200.00
00189            5400.00
00190            5800.00
00191            6200.00
00192            6400.00
00193            6800.00
00194            7000.00
00195            7400.00
00196            7600.00
00197            7800.00
00198            8400.00
00199            8600.00
00200            9000.00
00201            9200.00
00202            9400.00
00203            9800.00
00204           10000.00
00205           10200.00
00206           10600.00
00207           11000.00
00208           11400.00
00209           11600.00
00210           11600.00
00211           11800.00
00212           12200.00
00213           12400.00
00214           12800.00
00215           13000.00
00216           13200.00
00217           13200.00
00218           13800.00
00219           13800.00
00220           14000.00
00221           14200.00
00222           14600.00
00223           14800.00
00224           14800.00
00225           15000.00
00226           15400.00
00227           15400.00
00228           15600.00
00229           15800.00
00230           15800.00
00231           16000.00
00232           16400.00
00233           16400.00
00234           16400.00
00235           16600.00
00236           16600.00
00237           16800.00
00238           17000.00
00239           17000.00
00240           17000.00
00241           17200.00
00242           17200.00
00243           17200.00
00244           17200.00
00245           17400.00
00246           17400.00
00247           17800.00
00248           17800.00
00249           17600.00
00250           17800.00
00251           17800.00
00252           17800.00
00253           17800.00
00254           17800.00
00255           18000.00
00256           17800.00
00257           17800.00
00258           17800.00
00259           17800.00
00260           17800.00
00261           17800.00
00262           17600.00
00263           17600.00
00264           17400.00
00265           17400.00
00266           17400.00
00267           17200.00
00268           17200.00
00269           17200.00
00270           17200.00
00271           17000.00
00272           17000.00
00273           17000.00
00274           16800.00
00275           16600.00
00276           16400.00
00277           16400.00
00278           16200.00
00279           16000.00
00280           15800.00
00281           15600.00
00282           15400.00
00283           15400.00
00284           15200.00
00285           15000.00
00286           14800.00
00287           14600.00
00288           14600.00
00289           14200.00
00290           14000.00
00291           13800.00
00292           13600.00
00293           13400.00
00294           13200.00
00295           13000.00
00296           12600.00
00297           12400.00
00298           12200.00
00299           11800.00
00300           11600.00
00301           11400.00
00302           11000.00
00303           11000.00
00304           10600.00
00305           10200.00
00306           10000.00
00307            9800.00
00308            9400.00
00309            9200.00
00310            9000.00
00311            8600.00
00312            8200.00
00313            7800.00
00314            7600.00
00315            7400.00
00316            7000.00
00317            6800.00
00318            6200.00
00319            6000.00
00320            6000.00
00321            5400.00
00322            5200.00
00323            5000.00
00324            4400.00
00325            4200.00
00326            3800.00
00327            3600.00
00328            3400.00
00329            2800.00
00330            2600.00
00331            2400.00
00332            2000.00
00333            1800.00
00334            1200.00
00335            1000.00
00336             600.00
00337             200.00
00338               0.00
00339            -400.00
00340            -600.00
00341           -1000.00
00342           -1200.00
00343           -1400.00
00344           -2000.00
00345           -2200.00
00346           -2400.00
00347           -2800.00
00348           -3400.00
00349           -3800.00
00350           -4200.00
00351           -4200.00
00352           -4200.00
00353           -5000.00
00354           -5200.00
00355           -5400.00
00356           -5800.00
00357           -6000.00
00358           -6200.00
00359           -6800.00
00360           -7000.00
00361           -7400.00
00362           -7800.00
00363           -7800.00
00364           -8400.00
00365           -8600.00
00366           -8600.00
00367           -9200.00
00368           -9400.00
00369           -9800.00
00370          -10200.00
00371          -10200.00
00372          -10600.00
00373          -10800.00
00374          -11000.00
00375          -11400.00
00376          -11600.00
00377          -12000.00
00378          -12200.00
00379          -12400.00
00380          -12600.00
00381          -13000.00
00382          -13200.00
00383          -13400.00
00384          -13600.00
00385          -13800.00
00386          -14000.00
00387          -14200.00
00388          -14600.00
00389          -14600.00
00390          -14800.00
00391          -15000.00
00392          -15000.00
00393          -15400.00
00394          -15600.00
00395          -15600.00
00396          -15800.00
00397          -15800.00
00398          -16200.00
00399          -16400.00
00400          -16600.00
00401          -16600.00
00402          -16600.00
00403          -16600.00
00404          -17000.00
00405          -17000.00
00406          -17000.00
00407          -17200.00
00408          -17200.00
00409          -17400.00
00410          -17400.00
00411          -17400.00
00412          -17400.00
00413          -17600.00
00414          -17400.00
00415          -17800.00
00416          -17600.00
00417          -17800.00
00418          -17800.00
00419          -17800.00
00420          -17600.00
00421          -17800.00
00422          -17800.00
00423          -17800.00
00424          -17800.00
00425          -17800.00
00426          -17800.00
00427          -17400.00
00428          -17400.00
00429          -17400.00
00430          -17400.00
00431          -17800.00
00432          -17400.00
00433          -17400.00
00434          -17200.00
00435          -17200.00
00436          -17200.00
00437          -17000.00
00438          -17000.00
00439          -16800.00
00440          -16600.00
00441          -16600.00
00442          -16400.00
00443          -16400.00
00444          -16000.00
00445          -15800.00
00446          -15800.00
00447          -15600.00
00448          -15600.00
00449          -15400.00
00450          -15000.00
00451          -15000.00
00452          -14800.00
00453          -14600.00
00454          -14600.00
00455          -14200.00
00456          -14000.00
00457          -13800.00
00458          -13400.00
00459          -13400.00
00460          -13000.00
00461          -12800.00
00462          -12600.00
00463          -12400.00
00464          -12200.00
00465          -12000.00
00466          -11600.00
00467          -11600.00
00468          -11000.00
00469          -10800.00
00470          -10600.00
00471          -10200.00
00472          -10200.00
00473           -9800.00
00474           -9400.00
00475           -9200.00
00476           -9000.00
00477           -8600.00
00478           -8400.00
00479           -8200.00
00480           -7800.00
00481           -7400.00
00482           -7000.00
00483           -6800.00
00484           -6600.00
00485           -6200.00
00486           -5800.00
00487           -5400.00
00488           -5200.00
00489           -5000.00
00490           -4600.00
00491           -4200.00
00492           -3800.00
00493           -3600.00
00494           -3400.00
00495           -3000.00
00496           -2800.00
00497           -2200.00
00498           -2000.00
00499           -1600.00
00500           -1200.00
00501           -1200.00
00502            -600.00
00503            -400.00
00504               0.00
00505             400.00
00506             600.00
00507            1000.00
00508            1200.00
00509            1600.00
00510            2000.00
00511            2200.00
00512            2200.00
00513            2800.00
00514            3400.00
00515            3800.00
00516            4200.00
00517            4200.00
00518            4400.00
00519            4600.00
00520            5200.00
00521            5400.00
00522            5800.00
00523            6000.00
00524            6200.00
00525            6800.00
00526            7000.00
00527            7400.00
00528            7600.00
00529            8000.00
00530            8400.00
00531            8600.00
00532            9000.00
00533            9000.00
00534            9400.00
00535            9800.00
00536           10000.00
00537           10200.00
00538           10600.00
00539           10800.00
00540           11000.00
00541           11400.00
00542           11600.00
00543           11800.00
00544           12200.00
00545           12400.00
00546           12600.00
00547           13000.00
00548           13200.00
00549           13200.00
00550           13800.00
00551           13800.00
00552           14000.00
00553           14200.00
00554           14400.00
00555           14800.00
00556           14800.00
00557           15000.00
00558           15400.00
00559           15400.00
00560           15400.00
00561           15600.00
00562           15800.00
00563           16000.00
00564           16200.00
00565           16200.00
00566           16400.00
00567           16400.00
00568           16600.00
00569           16800.00
00570           17000.00
00571           17000.00
00572           17000.00
00573           17200.00
00574           17200.00
00575           17200.00
00576           17400.00
00577           17400.00
00578           17400.00
00579           17800.00
00580           17800.00
00581           17600.00
00582           17800.00
00583           17800.00
00584           17800.00
00585           17800.00
00586           17800.00
00587           18000.00
00588           18000.00
00589           17800.00
00590           18000.00
00591           17800.00
00592           17800.00
00593           17800.00
00594           17800.00
00595           17600.00
00596           17400.00
00597           17400.00
00598           17400.00
00599           17400.00
00600           17200.00
00601           17200.00
00602           17000.00
00603           17000.00
00604           17000.00
00605           16800.00
00606           16600.00
00607           16600.00
00608           16400.00
00609           16200.00
00610           16200.00
00611           16200.00
00612           15800.00
00613           15800.00
00614           15600.00
00615           15400.00
00616           15400.00
00617           15000.00
00618           14800.00
00619           14800.00
00620           14600.00
00621           14200.00
00622           14000.00
00623           13800.00
00624           13600.00
00625           13200.00
00626           13000.00
00627           13000.00
00628           12600.00
00629           12400.00
00630           12200.00
00631           12200.00
00632           11600.00
00633           11400.00
00634           11000.00
00635           10800.00
00636           10800.00
00637           10400.00
00638           10000.00
00639            9800.00
00640            9600.00
00641            9200.00
00642            9000.00
00643            8600.00
00644            8400.00
00645            8200.00
00646            7600.00
00647            7400.00
00648            7200.00
00649            6800.00
00650            6600.00
00651            6200.00
00652            6000.00
00653            5800.00
00654            5400.00
00655            5000.00
00656            4600.00
00657            4400.00
00658            4200.00
00659            3600.00
00660            3400.00
00661            3000.00
00662            2800.00
00663            2200.00
00664            2000.00
00665            1800.00
00666            1400.00
00667            1000.00
00668             800.00
00669             400.00
00670             200.00
00671            -200.00
00672            -600.00
00673            -800.00
00674           -1200.00
00675           -1400.00
00676           -2000.00
00677           -2000.00
00678           -2200.00
00679           -2800.00
00680           -3000.00
00681           -3800.00
00682           -4200.00
00683           -4400.00
00684           -4200.00
00685           -4600.00
00686           -5200.00
00687           -5400.00
00688           -5600.00
00689           -6000.00
00690           -6200.00
00691           -6800.00
00692           -7000.00
00693           -7000.00
00694           -7600.00
00695           -8000.00
00696           -8200.00
00697           -8600.00
00698           -8800.00
00699           -9000.00
00700           -9400.00
00701           -9600.00
00702          -10200.00
00703          -10200.00
00704          -10600.00
00705          -10800.00
00706          -11000.00
00707          -11400.00
00708          -11600.00
00709          -11800.00
00710          -12200.00
00711          -12400.00
00712          -12600.00
00713          -13000.00
00714          -13200.00
00715          -13400.00
00716          -13600.00
00717          -14000.00
00718          -14000.00
00719          -14200.00
00720          -14200.00
00721          -14600.00
00722          -14800.00
00723          -14800.00
00724          -15000.00
00725          -15400.00
00726          -15400.00
00727          -15600.00
00728          -15800.00
00729          -15800.00
00730          -16000.00
00731          -16200.00
00732          -16400.00
00733          -16400.00
00734          -16600.00
00735          -16600.00
00736          -16800.00
00737          -17000.00
00738          -17200.00
00739          -17200.00
00740          -17200.00
00741          -17200.00
00742          -17400.00
00743          -17400.00
00744          -17400.00
00745          -17600.00
00746          -17800.00
00747          -17600.00
00748          -17800.00
00749          -17800.00
00750          -17800.00
00751          -17800.00
00752          -17800.00
00753          -17800.00
00754          -17800.00
00755          -17800.00
00756          -17800.00
00757          -17800.00
00758          -17800.00
00759          -17400.00
00760          -17600.00
00761          -17400.00
00762          -17400.00
00763          -17400.00
00764          -17400.00
00765          -17400.00
00766          -17200.00
