Unit:(mV)
                     CH1
Frequency    301.461 kHz
00001            1200.00
00002            1200.00
00003            1000.00
00004            1000.00
00005             600.00
00006             400.00
00007             400.00
00008             200.00
00009               0.00
00010            -200.00
00011            -200.00
00012            -400.00
00013            -600.00
00014            -600.00
00015           -1000.00
00016           -1000.00
00017           -1000.00
00018           -1200.00
00019           -1600.00
00020           -2000.00
00021           -1800.00
00022           -1800.00
00023           -2200.00
00024           -2200.00
00025           -2600.00
00026           -2200.00
00027           -2800.00
00028           -3000.00
00029           -2800.00
00030           -3000.00
00031           -3400.00
00032           -3400.00
00033           -3600.00
00034           -3800.00
00035           -3800.00
00036           -4200.00
00037           -4200.00
00038           -4400.00
00039           -4400.00
00040           -4600.00
00041           -4600.00
00042           -4800.00
00043           -5000.00
00044           -5200.00
00045           -5200.00
00046           -5400.00
00047           -5400.00
00048           -5600.00
00049           -6000.00
00050           -6000.00
00051           -6000.00
00052           -6000.00
00053           -6200.00
00054           -6600.00
00055           -6400.00
00056           -6600.00
00057           -6800.00
00058           -6800.00
00059           -7000.00
00060           -7000.00
00061           -7000.00
00062           -7000.00
00063           -7400.00
00064           -7400.00
00065           -7400.00
00066           -7400.00
00067           -7400.00
00068           -7600.00
00069           -7600.00
00070           -7800.00
00071           -7800.00
00072           -7800.00
00073           -7800.00
00074           -8000.00
00075           -7800.00
00076           -8200.00
00077           -8200.00
00078           -8200.00
00079           -8400.00
00080           -8400.00
00081           -8400.00
00082           -8400.00
00083           -8400.00
00084           -8400.00
00085           -8400.00
00086           -8600.00
00087           -8400.00
00088           -8400.00
00089           -8400.00
00090           -8400.00
00091           -8600.00
00092           -8400.00
00093           -8400.00
00094           -8600.00
00095           -8400.00
00096           -8400.00
00097           -8400.00
00098           -8400.00
00099           -8400.00
00100           -8400.00
00101           -8400.00
00102           -8400.00
00103           -8400.00
00104           -8200.00
00105           -8400.00
00106           -8200.00
00107           -8200.00
00108           -8200.00
00109           -8000.00
00110           -8200.00
00111           -8200.00
00112           -7800.00
00113           -7800.00
00114           -7800.00
00115           -7800.00
00116           -7600.00
00117           -7600.00
00118           -7400.00
00119           -7400.00
00120           -7400.00
00121           -7200.00
00122           -7000.00
00123           -7000.00
00124           -7200.00
00125           -7000.00
00126           -6800.00
00127           -6800.00
00128           -6600.00
00129           -6600.00
00130           -6600.00
00131           -6200.00
00132           -6200.00
00133           -6000.00
00134           -6000.00
00135           -6000.00
00136           -5600.00
00137           -5600.00
00138           -5400.00
00139           -5400.00
00140           -5200.00
00141           -5200.00
00142           -5000.00
00143           -4800.00
00144           -4600.00
00145           -4600.00
00146           -4400.00
00147           -4200.00
00148           -4000.00
00149           -4000.00
00150           -3800.00
00151           -3800.00
00152           -3600.00
00153           -3400.00
00154           -3400.00
00155           -3000.00
00156           -3000.00
00157           -2800.00
00158           -2800.00
00159           -2600.00
00160           -2200.00
00161           -2200.00
00162           -2000.00
00163           -2000.00
00164           -1800.00
00165           -1800.00
00166           -1200.00
00167           -1200.00
00168           -1000.00
00169           -1000.00
00170            -600.00
00171            -600.00
00172            -600.00
00173            -400.00
00174            -200.00
00175               0.00
00176             200.00
00177             400.00
00178             400.00
00179             600.00
00180             800.00
00181            1000.00
00182            1000.00
00183            1200.00
00184            1400.00
00185            1400.00
00186            1800.00
00187            1800.00
00188            2000.00
00189            2200.00
00190            2400.00
00191            2400.00
00192            2600.00
00193            2600.00
00194            3000.00
00195            3200.00
00196            3200.00
00197            3400.00
00198            3400.00
00199            3600.00
00200            3800.00
00201            3800.00
00202            3800.00
00203            4200.00
00204            4200.00
00205            4400.00
00206            4800.00
00207            4600.00
00208            5000.00
00209            5200.00
00210            5200.00
00211            5200.00
00212            5400.00
00213            5800.00
00214            5800.00
00215            5800.00
00216            6000.00
00217            5800.00
00218            6200.00
00219            6200.00
00220            6600.00
00221            6600.00
00222            6600.00
00223            6600.00
00224            6800.00
00225            6800.00
00226            7000.00
00227            7200.00
00228            7400.00
00229            7200.00
00230            7400.00
00231            7600.00
00232            7400.00
00233            7600.00
00234            7600.00
00235            7600.00
00236            7800.00
00237            7800.00
00238            8000.00
00239            8200.00
00240            8000.00
00241            8200.00
00242            8200.00
00243            8200.00
00244            8200.00
00245            8200.00
00246            8200.00
00247            8200.00
00248            8400.00
00249            8200.00
00250            8400.00
00251            8400.00
00252            8400.00
00253            8400.00
00254            8400.00
00255            8400.00
00256            8400.00
00257            8400.00
00258            8400.00
00259            8400.00
00260            8400.00
00261            8600.00
00262            8400.00
00263            8400.00
00264            8400.00
00265            8400.00
00266            8400.00
00267            8200.00
00268            8400.00
00269            8400.00
00270            8200.00
00271            8200.00
00272            8200.00
00273            8200.00
00274            8200.00
00275            8200.00
00276            8200.00
00277            7800.00
00278            7800.00
00279            7800.00
00280            7600.00
00281            7600.00
00282            7400.00
00283            7400.00
00284            7600.00
00285            7400.00
00286            7400.00
00287            7200.00
00288            7000.00
00289            7000.00
00290            6800.00
00291            6800.00
00292            6800.00
00293            6800.00
00294            6600.00
00295            6600.00
00296            6200.00
00297            6200.00
00298            6200.00
00299            6000.00
00300            5800.00
00301            6000.00
00302            5800.00
00303            5600.00
00304            5400.00
00305            5400.00
00306            5200.00
00307            5200.00
00308            5000.00
00309            5000.00
00310            4600.00
00311            4400.00
00312            4400.00
00313            4200.00
00314            4200.00
00315            3800.00
00316            3800.00
00317            3600.00
00318            3400.00
00319            3400.00
00320            3200.00
00321            3200.00
00322            3000.00
00323            2800.00
00324            2600.00
00325            2600.00
00326            2600.00
00327            2200.00
00328            2000.00
00329            2000.00
00330            1800.00
00331            1400.00
00332            1400.00
00333            1200.00
00334            1200.00
00335            1000.00
00336             600.00
00337             400.00
00338             400.00
00339             200.00
00340             200.00
00341            -200.00
00342            -200.00
00343            -400.00
00344            -400.00
00345            -600.00
00346            -600.00
00347           -1000.00
00348           -1000.00
00349           -1200.00
00350           -1400.00
00351           -1600.00
00352           -2000.00
00353           -1800.00
00354           -1800.00
00355           -2200.00
00356           -2600.00
00357           -2200.00
00358           -2600.00
00359           -2800.00
00360           -2800.00
00361           -2800.00
00362           -3400.00
00363           -3400.00
00364           -3400.00
00365           -3600.00
00366           -3800.00
00367           -4000.00
00368           -4000.00
00369           -4400.00
00370           -4400.00
00371           -4400.00
00372           -4600.00
00373           -4800.00
00374           -5000.00
00375           -5200.00
00376           -5000.00
00377           -5400.00
00378           -5400.00
00379           -5600.00
00380           -5800.00
00381           -6000.00
00382           -6000.00
00383           -6000.00
00384           -6200.00
00385           -6200.00
00386           -6400.00
00387           -6600.00
00388           -6800.00
00389           -6800.00
00390           -6800.00
00391           -6800.00
00392           -7000.00
00393           -7000.00
00394           -7000.00
00395           -7400.00
00396           -7400.00
00397           -7400.00
00398           -7600.00
00399           -7600.00
00400           -7600.00
00401           -7600.00
00402           -7800.00
00403           -7800.00
00404           -7800.00
00405           -7800.00
00406           -8000.00
00407           -8200.00
00408           -8000.00
00409           -8400.00
00410           -8200.00
00411           -8200.00
00412           -8400.00
00413           -8400.00
00414           -8400.00
00415           -8400.00
00416           -8200.00
00417           -8400.00
00418           -8400.00
00419           -8400.00
00420           -8400.00
00421           -8400.00
00422           -8400.00
00423           -8600.00
00424           -8600.00
00425           -8400.00
00426           -8400.00
00427           -8400.00
00428           -8400.00
00429           -8200.00
00430           -8200.00
00431           -8400.00
00432           -8400.00
00433           -8400.00
00434           -8400.00
00435           -8200.00
00436           -8400.00
00437           -8200.00
00438           -8200.00
00439           -8200.00
00440           -8200.00
00441           -8000.00
00442           -7800.00
00443           -8000.00
00444           -7800.00
00445           -7800.00
00446           -7800.00
00447           -7600.00
00448           -7600.00
00449           -7600.00
00450           -7600.00
00451           -7400.00
00452           -7400.00
00453           -7400.00
00454           -7000.00
00455           -7000.00
00456           -7000.00
00457           -6800.00
00458           -7000.00
00459           -6800.00
00460           -6600.00
00461           -6600.00
00462           -6600.00
00463           -6200.00
00464           -6200.00
00465           -6000.00
00466           -6000.00
00467           -5800.00
00468           -5800.00
00469           -5400.00
00470           -5400.00
00471           -5400.00
00472           -5200.00
00473           -5000.00
00474           -5000.00
00475           -4600.00
00476           -4600.00
00477           -4400.00
00478           -4400.00
00479           -4400.00
00480           -4200.00
00481           -3800.00
00482           -3800.00
00483           -3800.00
00484           -3600.00
00485           -3400.00
00486           -3200.00
00487           -3000.00
00488           -2800.00
00489           -2800.00
00490           -2600.00
00491           -2600.00
00492           -2200.00
00493           -2200.00
00494           -2200.00
00495           -2000.00
00496           -1800.00
00497           -1400.00
00498           -1400.00
00499           -1200.00
00500           -1000.00
00501            -800.00
00502            -600.00
00503            -600.00
00504            -400.00
00505            -200.00
00506            -200.00
00507            -200.00
00508             200.00
00509             200.00
00510             400.00
00511             600.00
00512             600.00
00513            1000.00
00514            1000.00
00515            1200.00
00516            1400.00
00517            1800.00
00518            1800.00
00519            2000.00
00520            2000.00
00521            2200.00
00522            2600.00
00523            2200.00
00524            2600.00
00525            2600.00
00526            2800.00
00527            3000.00
00528            3000.00
00529            3400.00
00530            3600.00
00531            3600.00
00532            3800.00
00533            3800.00
00534            4200.00
00535            4200.00
00536            4400.00
00537            4400.00
00538            4600.00
00539            4600.00
00540            5000.00
00541            5200.00
00542            5200.00
00543            5200.00
00544            5400.00
00545            5600.00
00546            5800.00
00547            6000.00
00548            6000.00
00549            6000.00
00550            6200.00
00551            6600.00
00552            6600.00
00553            6600.00
00554            6800.00
00555            6800.00
00556            6800.00
00557            6800.00
00558            7000.00
00559            7400.00
00560            7000.00
00561            7400.00
00562            7400.00
00563            7400.00
00564            7600.00
00565            7600.00
00566            7600.00
00567            7800.00
00568            7800.00
00569            7800.00
00570            8000.00
00571            8000.00
00572            8000.00
00573            8200.00
00574            8200.00
00575            8200.00
00576            8200.00
00577            8200.00
00578            8200.00
00579            8400.00
00580            8400.00
00581            8400.00
00582            8400.00
00583            8400.00
00584            8400.00
00585            8400.00
00586            8400.00
00587            8400.00
00588            8400.00
00589            8400.00
00590            8400.00
00591            8400.00
00592            8400.00
00593            8400.00
00594            8600.00
00595            8400.00
00596            8400.00
00597            8400.00
00598            8400.00
00599            8200.00
00600            8200.00
00601            8400.00
00602            8200.00
00603            8200.00
00604            8200.00
00605            8200.00
00606            8200.00
00607            8200.00
00608            8200.00
00609            7800.00
00610            7600.00
00611            7800.00
00612            7600.00
00613            7800.00
00614            7600.00
00615            7600.00
00616            7400.00
00617            7600.00
00618            7400.00
00619            7000.00
00620            7400.00
00621            7000.00
00622            7000.00
00623            6800.00
00624            6800.00
00625            6800.00
00626            6600.00
00627            6600.00
00628            6200.00
00629            6200.00
00630            6000.00
00631            6000.00
00632            6000.00
00633            5800.00
00634            5800.00
00635            5600.00
00636            5400.00
00637            5200.00
00638            5200.00
00639            5200.00
00640            5000.00
00641            5000.00
00642            4400.00
00643            4400.00
00644            4400.00
00645            4200.00
00646            4200.00
00647            4000.00
00648            3600.00
00649            3600.00
00650            3400.00
00651            3400.00
00652            3200.00
00653            3000.00
00654            2800.00
00655            2600.00
00656            2600.00
00657            2600.00
00658            2200.00
00659            2000.00
00660            2000.00
00661            2000.00
00662            1800.00
00663            1400.00
00664            1400.00
00665            1200.00
00666            1000.00
00667            1000.00
00668             600.00
00669             600.00
00670             400.00
00671             400.00
00672             200.00
00673            -200.00
00674            -400.00
00675            -400.00
00676            -600.00
00677            -600.00
00678            -600.00
00679           -1000.00
00680            -800.00
00681           -1200.00
00682           -1400.00
00683           -1800.00
00684           -1800.00
00685           -1800.00
00686           -2000.00
00687           -2200.00
00688           -2600.00
00689           -2200.00
00690           -2800.00
00691           -2800.00
00692           -2800.00
00693           -3000.00
00694           -3400.00
00695           -3400.00
00696           -3600.00
00697           -3600.00
00698           -3800.00
00699           -3800.00
00700           -4200.00
00701           -4200.00
00702           -4400.00
00703           -4400.00
00704           -4600.00
00705           -4600.00
00706           -4800.00
00707           -5200.00
00708           -5200.00
00709           -5200.00
00710           -5400.00
00711           -5400.00
00712           -5800.00
00713           -5800.00
00714           -6000.00
00715           -6200.00
00716           -6200.00
00717           -6200.00
00718           -6400.00
00719           -6600.00
00720           -6600.00
00721           -6800.00
00722           -6800.00
00723           -7000.00
00724           -7000.00
00725           -7000.00
00726           -7000.00
00727           -7400.00
00728           -7400.00
00729           -7600.00
00730           -7600.00
00731           -7600.00
00732           -7600.00
00733           -7600.00
00734           -7800.00
00735           -7800.00
00736           -7800.00
00737           -7800.00
00738           -8200.00
00739           -8000.00
00740           -8200.00
00741           -8200.00
00742           -8200.00
00743           -8200.00
00744           -8400.00
00745           -8200.00
00746           -8400.00
00747           -8400.00
00748           -8400.00
00749           -8400.00
00750           -8400.00
00751           -8400.00
00752           -8400.00
00753           -8400.00
00754           -8400.00
00755           -8400.00
00756           -8600.00
00757           -8400.00
00758           -8400.00
00759           -8400.00
00760           -8400.00
00761           -8400.00
00762           -8400.00
00763           -8400.00
00764           -8400.00
00765           -8400.00
00766           -8200.00
