Unit:(mV)
                     CH1
Frequency    300.971 kHz
00001            1200.00
00002            1000.00
00003             800.00
00004             400.00
00005             200.00
00006            -200.00
00007            -400.00
00008            -400.00
00009            -600.00
00010           -1000.00
00011           -1200.00
00012           -1400.00
00013           -1800.00
00014           -2000.00
00015           -2200.00
00016           -2800.00
00017           -3200.00
00018           -3400.00
00019           -3200.00
00020           -3600.00
00021           -3800.00
00022           -4200.00
00023           -4400.00
00024           -4600.00
00025           -5000.00
00026           -5200.00
00027           -5400.00
00028           -5800.00
00029           -6000.00
00030           -6000.00
00031           -6200.00
00032           -6600.00
00033           -7000.00
00034           -7000.00
00035           -7000.00
00036           -7600.00
00037           -7600.00
00038           -7800.00
00039           -8200.00
00040           -8400.00
00041           -8600.00
00042           -9000.00
00043           -9000.00
00044           -9200.00
00045           -9400.00
00046           -9400.00
00047           -9800.00
00048          -10000.00
00049          -10200.00
00050          -10400.00
00051          -10600.00
00052          -10800.00
00053          -10800.00
00054          -11000.00
00055          -11200.00
00056          -11400.00
00057          -11600.00
00058          -11600.00
00059          -11800.00
00060          -12000.00
00061          -11800.00
00062          -12400.00
00063          -12400.00
00064          -12400.00
00065          -12400.00
00066          -12600.00
00067          -13000.00
00068          -13000.00
00069          -13000.00
00070          -13000.00
00071          -13200.00
00072          -13400.00
00073          -13400.00
00074          -13400.00
00075          -13400.00
00076          -13800.00
00077          -13800.00
00078          -13800.00
00079          -14000.00
00080          -14000.00
00081          -14000.00
00082          -14000.00
00083          -14000.00
00084          -14000.00
00085          -14000.00
00086          -14000.00
00087          -14000.00
00088          -14000.00
00089          -14200.00
00090          -14000.00
00091          -14000.00
00092          -14000.00
00093          -14000.00
00094          -14000.00
00095          -14000.00
00096          -14000.00
00097          -14000.00
00098          -13800.00
00099          -13800.00
00100          -13800.00
00101          -13800.00
00102          -13600.00
00103          -13400.00
00104          -13400.00
00105          -13400.00
00106          -13400.00
00107          -13200.00
00108          -13200.00
00109          -13000.00
00110          -12800.00
00111          -12800.00
00112          -12600.00
00113          -12600.00
00114          -12400.00
00115          -12400.00
00116          -12400.00
00117          -12200.00
00118          -11800.00
00119          -11800.00
00120          -11600.00
00121          -11400.00
00122          -11000.00
00123          -11000.00
00124          -11000.00
00125          -10800.00
00126          -10600.00
00127          -10400.00
00128          -10200.00
00129          -10200.00
00130          -10000.00
00131           -9800.00
00132           -9400.00
00133           -9200.00
00134           -9200.00
00135           -9000.00
00136           -8600.00
00137           -8400.00
00138           -8400.00
00139           -8200.00
00140           -7800.00
00141           -7600.00
00142           -7400.00
00143           -7200.00
00144           -7000.00
00145           -6800.00
00146           -6600.00
00147           -6200.00
00148           -6000.00
00149           -5800.00
00150           -5400.00
00151           -5400.00
00152           -5000.00
00153           -5000.00
00154           -4600.00
00155           -4400.00
00156           -4200.00
00157           -3800.00
00158           -3600.00
00159           -3400.00
00160           -3000.00
00161           -2800.00
00162           -2600.00
00163           -2200.00
00164           -2000.00
00165           -1800.00
00166           -1600.00
00167           -1200.00
00168           -1000.00
00169            -600.00
00170            -600.00
00171            -200.00
00172            -200.00
00173             400.00
00174             400.00
00175             800.00
00176            1200.00
00177            1200.00
00178            1400.00
00179            1800.00
00180            2000.00
00181            2400.00
00182            2600.00
00183            2800.00
00184            3200.00
00185            3400.00
00186            3600.00
00187            3800.00
00188            4200.00
00189            4200.00
00190            4600.00
00191            5000.00
00192            5200.00
00193            5400.00
00194            5800.00
00195            5800.00
00196            6000.00
00197            6400.00
00198            6600.00
00199            6800.00
00200            7000.00
00201            7400.00
00202            7400.00
00203            7800.00
00204            8000.00
00205            8400.00
00206            8400.00
00207            8600.00
00208            9000.00
00209            9000.00
00210            9200.00
00211            9400.00
00212            9800.00
00213            9800.00
00214           10000.00
00215           10000.00
00216           10200.00
00217           10600.00
00218           10800.00
00219           10800.00
00220           11000.00
00221           11200.00
00222           11400.00
00223           11400.00
00224           11600.00
00225           11600.00
00226           12000.00
00227           12200.00
00228           12200.00
00229           12400.00
00230           12400.00
00231           12600.00
00232           13000.00
00233           13000.00
00234           13000.00
00235           13000.00
00236           13200.00
00237           13200.00
00238           13200.00
00239           13400.00
00240           13400.00
00241           13600.00
00242           13800.00
00243           13800.00
00244           13800.00
00245           13800.00
00246           14000.00
00247           14000.00
00248           14000.00
00249           13800.00
00250           14000.00
00251           14000.00
00252           14200.00
00253           14000.00
00254           14000.00
00255           14000.00
00256           14000.00
00257           14000.00
00258           14200.00
00259           14000.00
00260           14000.00
00261           14000.00
00262           14000.00
00263           13800.00
00264           14000.00
00265           13800.00
00266           14000.00
00267           13800.00
00268           13800.00
00269           13400.00
00270           13400.00
00271           13400.00
00272           13400.00
00273           13400.00
00274           13200.00
00275           13000.00
00276           13000.00
00277           13000.00
00278           13000.00
00279           12400.00
00280           12400.00
00281           12200.00
00282           12200.00
00283           12200.00
00284           11800.00
00285           11800.00
00286           11600.00
00287           11400.00
00288           11400.00
00289           11000.00
00290           10800.00
00291           10800.00
00292           10600.00
00293           10600.00
00294           10400.00
00295           10000.00
00296           10000.00
00297            9800.00
00298            9800.00
00299            9400.00
00300            9200.00
00301            9000.00
00302            8800.00
00303            8600.00
00304            8400.00
00305            8200.00
00306            7800.00
00307            7800.00
00308            7600.00
00309            7400.00
00310            7000.00
00311            6800.00
00312            6800.00
00313            6600.00
00314            6000.00
00315            6000.00
00316            5800.00
00317            5400.00
00318            5200.00
00319            5000.00
00320            4600.00
00321            4400.00
00322            4200.00
00323            3800.00
00324            3600.00
00325            3400.00
00326            3200.00
00327            3000.00
00328            2600.00
00329            2400.00
00330            2000.00
00331            2000.00
00332            1800.00
00333            1200.00
00334            1000.00
00335             800.00
00336             400.00
00337             400.00
00338             200.00
00339            -200.00
00340            -400.00
00341            -600.00
00342           -1000.00
00343           -1200.00
00344           -1600.00
00345           -1800.00
00346           -2000.00
00347           -2200.00
00348           -2600.00
00349           -3000.00
00350           -3400.00
00351           -3400.00
00352           -3200.00
00353           -3800.00
00354           -4200.00
00355           -4200.00
00356           -4600.00
00357           -4800.00
00358           -5000.00
00359           -5400.00
00360           -6000.00
00361           -5800.00
00362           -6000.00
00363           -6200.00
00364           -6600.00
00365           -6800.00
00366           -7000.00
00367           -7000.00
00368           -7400.00
00369           -7600.00
00370           -7800.00
00371           -8200.00
00372           -8400.00
00373           -8600.00
00374           -8800.00
00375           -8800.00
00376           -9200.00
00377           -9400.00
00378           -9400.00
00379           -9800.00
00380          -10000.00
00381          -10000.00
00382          -10200.00
00383          -10200.00
00384          -10800.00
00385          -10800.00
00386          -11000.00
00387          -11000.00
00388          -11400.00
00389          -11400.00
00390          -11600.00
00391          -11600.00
00392          -11800.00
00393          -12000.00
00394          -12400.00
00395          -12400.00
00396          -12400.00
00397          -12600.00
00398          -12600.00
00399          -12600.00
00400          -13000.00
00401          -13000.00
00402          -13000.00
00403          -13200.00
00404          -13200.00
00405          -13400.00
00406          -13400.00
00407          -13400.00
00408          -13800.00
00409          -13800.00
00410          -13800.00
00411          -13800.00
00412          -14000.00
00413          -14000.00
00414          -13800.00
00415          -14000.00
00416          -14000.00
00417          -14000.00
00418          -14000.00
00419          -14000.00
00420          -14000.00
00421          -14000.00
00422          -14200.00
00423          -14000.00
00424          -14000.00
00425          -14000.00
00426          -14000.00
00427          -14000.00
00428          -14000.00
00429          -14000.00
00430          -14000.00
00431          -14000.00
00432          -13800.00
00433          -13800.00
00434          -13800.00
00435          -13800.00
00436          -13400.00
00437          -13400.00
00438          -13400.00
00439          -13200.00
00440          -13200.00
00441          -13000.00
00442          -13000.00
00443          -13000.00
00444          -13000.00
00445          -12600.00
00446          -12400.00
00447          -12200.00
00448          -12200.00
00449          -12000.00
00450          -12000.00
00451          -11600.00
00452          -11600.00
00453          -11600.00
00454          -11200.00
00455          -11000.00
00456          -11000.00
00457          -10800.00
00458          -10600.00
00459          -10600.00
00460          -10200.00
00461          -10000.00
00462          -10000.00
00463           -9800.00
00464           -9400.00
00465           -9200.00
00466           -9200.00
00467           -9000.00
00468           -8800.00
00469           -8600.00
00470           -8400.00
00471           -8400.00
00472           -8200.00
00473           -7800.00
00474           -7600.00
00475           -7400.00
00476           -7000.00
00477           -6800.00
00478           -6800.00
00479           -6200.00
00480           -6200.00
00481           -6000.00
00482           -5600.00
00483           -5400.00
00484           -5200.00
00485           -5000.00
00486           -4600.00
00487           -4400.00
00488           -4200.00
00489           -3800.00
00490           -3600.00
00491           -3400.00
00492           -3000.00
00493           -2800.00
00494           -2800.00
00495           -2600.00
00496           -2200.00
00497           -2000.00
00498           -1600.00
00499           -1400.00
00500           -1000.00
00501            -800.00
00502            -400.00
00503            -200.00
00504               0.00
00505             200.00
00506             400.00
00507             600.00
00508            1000.00
00509            1200.00
00510            1600.00
00511            1800.00
00512            2000.00
00513            2000.00
00514            2600.00
00515            3000.00
00516            3400.00
00517            3400.00
00518            3600.00
00519            3600.00
00520            4200.00
00521            4200.00
00522            4600.00
00523            5000.00
00524            5000.00
00525            5400.00
00526            5600.00
00527            5800.00
00528            6000.00
00529            6200.00
00530            6600.00
00531            6800.00
00532            6800.00
00533            7000.00
00534            7600.00
00535            7600.00
00536            8000.00
00537            8200.00
00538            8200.00
00539            8400.00
00540            8600.00
00541            9000.00
00542            9200.00
00543            9200.00
00544            9400.00
00545            9800.00
00546            9800.00
00547           10000.00
00548           10400.00
00549           10600.00
00550           10600.00
00551           10800.00
00552           11000.00
00553           11000.00
00554           11400.00
00555           11400.00
00556           11600.00
00557           11800.00
00558           11800.00
00559           12200.00
00560           12200.00
00561           12200.00
00562           12400.00
00563           12600.00
00564           12800.00
00565           13000.00
00566           13000.00
00567           13000.00
00568           13200.00
00569           13200.00
00570           13200.00
00571           13400.00
00572           13600.00
00573           13400.00
00574           13800.00
00575           13800.00
00576           13800.00
00577           13800.00
00578           14000.00
00579           14000.00
00580           14000.00
00581           14000.00
00582           14000.00
00583           14000.00
00584           14000.00
00585           14000.00
00586           14200.00
00587           14000.00
00588           14000.00
00589           14200.00
00590           14000.00
00591           14000.00
00592           14000.00
00593           14000.00
00594           14000.00
00595           13800.00
00596           14000.00
00597           13800.00
00598           13800.00
00599           13800.00
00600           13400.00
00601           13800.00
00602           13400.00
00603           13400.00
00604           13200.00
00605           13200.00
00606           13200.00
00607           13000.00
00608           13000.00
00609           13000.00
00610           12600.00
00611           12600.00
00612           12400.00
00613           12200.00
00614           12200.00
00615           12200.00
00616           11800.00
00617           11800.00
00618           11600.00
00619           11600.00
00620           11400.00
00621           11400.00
00622           11000.00
00623           10800.00
00624           10600.00
00625           10600.00
00626           10200.00
00627           10200.00
00628           10000.00
00629            9800.00
00630            9800.00
00631            9400.00
00632            9200.00
00633            9200.00
00634            9000.00
00635            8600.00
00636            8400.00
00637            8200.00
00638            7800.00
00639            7800.00
00640            7600.00
00641            7400.00
00642            7000.00
00643            7000.00
00644            6800.00
00645            6600.00
00646            6200.00
00647            6000.00
00648            5800.00
00649            5600.00
00650            5200.00
00651            5000.00
00652            5000.00
00653            4600.00
00654            4200.00
00655            3800.00
00656            3600.00
00657            3600.00
00658            3200.00
00659            3000.00
00660            2800.00
00661            2600.00
00662            2200.00
00663            1800.00
00664            1800.00
00665            1400.00
00666            1000.00
00667            1000.00
00668             400.00
00669             400.00
00670               0.00
00671            -400.00
00672            -400.00
00673            -600.00
00674           -1000.00
00675           -1200.00
00676           -1400.00
00677           -1800.00
00678           -2000.00
00679           -2200.00
00680           -2600.00
00681           -3000.00
00682           -3400.00
00683           -3400.00
00684           -3200.00
00685           -3800.00
00686           -4200.00
00687           -4200.00
00688           -4400.00
00689           -5000.00
00690           -5000.00
00691           -5200.00
00692           -5800.00
00693           -5800.00
00694           -6000.00
00695           -6200.00
00696           -6600.00
00697           -6800.00
00698           -7000.00
00699           -7000.00
00700           -7400.00
00701           -7600.00
00702           -7800.00
00703           -8200.00
00704           -8400.00
00705           -8400.00
00706           -8600.00
00707           -8800.00
00708           -9200.00
00709           -9200.00
00710           -9400.00
00711           -9800.00
00712           -9800.00
00713          -10200.00
00714          -10200.00
00715          -10200.00
00716          -10600.00
00717          -10800.00
00718          -11000.00
00719          -11000.00
00720          -11400.00
00721          -11400.00
00722          -11600.00
00723          -11800.00
00724          -12000.00
00725          -12200.00
00726          -12200.00
00727          -12400.00
00728          -12400.00
00729          -12600.00
00730          -12600.00
00731          -12600.00
00732          -13000.00
00733          -13000.00
00734          -13200.00
00735          -13200.00
00736          -13400.00
00737          -13400.00
00738          -13400.00
00739          -13800.00
00740          -13800.00
00741          -13800.00
00742          -13800.00
00743          -14000.00
00744          -14000.00
00745          -14000.00
00746          -14000.00
00747          -14000.00
00748          -14000.00
00749          -14000.00
00750          -14000.00
00751          -14000.00
00752          -14200.00
00753          -14200.00
00754          -14000.00
00755          -14000.00
00756          -14000.00
00757          -14000.00
00758          -14000.00
00759          -14000.00
00760          -14000.00
00761          -14000.00
00762          -13800.00
00763          -13800.00
00764          -13800.00
00765          -13800.00
00766          -13800.00
