Unit:(mV)
                     CH1
Frequency    301.043 kHz
00001            2200.00
00002            1800.00
00003            1200.00
00004            1000.00
00005             400.00
00006             200.00
00007            -400.00
00008            -600.00
00009           -1200.00
00010           -1600.00
00011           -2000.00
00012           -2200.00
00013           -2800.00
00014           -2800.00
00015           -3600.00
00016           -4200.00
00017           -4600.00
00018           -5000.00
00019           -5200.00
00020           -5400.00
00021           -5800.00
00022           -6400.00
00023           -6800.00
00024           -7200.00
00025           -7600.00
00026           -7800.00
00027           -8400.00
00028           -8800.00
00029           -9200.00
00030           -9400.00
00031           -9800.00
00032          -10200.00
00033          -10800.00
00034          -10800.00
00035          -11400.00
00036          -11600.00
00037          -12200.00
00038          -12400.00
00039          -12600.00
00040          -13200.00
00041          -13400.00
00042          -13800.00
00043          -14000.00
00044          -14600.00
00045          -14800.00
00046          -15000.00
00047          -15400.00
00048          -15600.00
00049          -16000.00
00050          -16200.00
00051          -16600.00
00052          -17000.00
00053          -17200.00
00054          -17200.00
00055          -17400.00
00056          -18000.00
00057          -18200.00
00058          -18400.00
00059          -18800.00
00060          -18800.00
00061          -19000.00
00062          -19400.00
00063          -19600.00
00064          -19800.00
00065          -19800.00
00066          -20000.00
00067          -20200.00
00068          -20400.00
00069          -20600.00
00070          -20600.00
00071          -21000.00
00072          -21200.00
00073          -21400.00
00074          -21200.00
00075          -21400.00
00076          -21400.00
00077          -21600.00
00078          -21800.00
00079          -22000.00
00080          -22000.00
00081          -22000.00
00082          -22000.00
00083          -22200.00
00084          -22200.00
00085          -22200.00
00086          -22200.00
00087          -22200.00
00088          -22200.00
00089          -22200.00
00090          -22200.00
00091          -22200.00
00092          -22000.00
00093          -22200.00
00094          -22200.00
00095          -22000.00
00096          -22000.00
00097          -22000.00
00098          -22000.00
00099          -21800.00
00100          -21800.00
00101          -21600.00
00102          -21400.00
00103          -21400.00
00104          -21200.00
00105          -21200.00
00106          -21000.00
00107          -21000.00
00108          -20600.00
00109          -20600.00
00110          -20400.00
00111          -20200.00
00112          -20200.00
00113          -20200.00
00114          -19800.00
00115          -19600.00
00116          -19400.00
00117          -19000.00
00118          -19000.00
00119          -18800.00
00120          -18600.00
00121          -18200.00
00122          -18000.00
00123          -17600.00
00124          -17400.00
00125          -17200.00
00126          -17000.00
00127          -16600.00
00128          -16400.00
00129          -16200.00
00130          -15800.00
00131          -15600.00
00132          -15400.00
00133          -14800.00
00134          -14600.00
00135          -14200.00
00136          -14000.00
00137          -13800.00
00138          -13400.00
00139          -13000.00
00140          -12600.00
00141          -12400.00
00142          -11800.00
00143          -11600.00
00144          -11400.00
00145          -10800.00
00146          -10600.00
00147          -10200.00
00148           -9800.00
00149           -9400.00
00150           -9000.00
00151           -8600.00
00152           -8200.00
00153           -7800.00
00154           -7600.00
00155           -7000.00
00156           -6600.00
00157           -6200.00
00158           -5800.00
00159           -5400.00
00160           -4800.00
00161           -4600.00
00162           -4200.00
00163           -3800.00
00164           -3400.00
00165           -2800.00
00166           -2600.00
00167           -2200.00
00168           -1800.00
00169           -1200.00
00170            -600.00
00171            -600.00
00172            -200.00
00173             400.00
00174            1000.00
00175            1200.00
00176            1400.00
00177            2000.00
00178            2200.00
00179            2600.00
00180            3000.00
00181            3600.00
00182            3800.00
00183            4400.00
00184            5000.00
00185            5400.00
00186            5600.00
00187            6000.00
00188            6600.00
00189            6600.00
00190            7000.00
00191            7600.00
00192            7800.00
00193            8400.00
00194            8600.00
00195            9000.00
00196            9400.00
00197           10000.00
00198           10200.00
00199           10600.00
00200           10800.00
00201           11400.00
00202           11600.00
00203           12200.00
00204           12400.00
00205           12800.00
00206           13000.00
00207           13400.00
00208           13800.00
00209           14200.00
00210           14600.00
00211           14800.00
00212           15000.00
00213           15400.00
00214           15800.00
00215           16200.00
00216           16400.00
00217           16400.00
00218           16800.00
00219           17000.00
00220           17400.00
00221           17400.00
00222           18000.00
00223           18200.00
00224           18400.00
00225           18600.00
00226           18800.00
00227           19000.00
00228           19400.00
00229           19600.00
00230           19600.00
00231           19800.00
00232           20200.00
00233           20400.00
00234           20400.00
00235           20600.00
00236           20600.00
00237           21000.00
00238           21000.00
00239           21200.00
00240           21200.00
00241           21400.00
00242           21400.00
00243           21800.00
00244           21800.00
00245           21800.00
00246           21800.00
00247           22000.00
00248           22000.00
00249           22000.00
00250           22200.00
00251           22000.00
00252           22200.00
00253           22200.00
00254           22200.00
00255           22200.00
00256           22200.00
00257           22200.00
00258           22200.00
00259           22000.00
00260           22000.00
00261           21800.00
00262           22000.00
00263           21800.00
00264           22000.00
00265           21800.00
00266           21800.00
00267           21400.00
00268           21400.00
00269           21400.00
00270           21200.00
00271           21200.00
00272           21200.00
00273           21000.00
00274           20800.00
00275           20600.00
00276           20400.00
00277           20400.00
00278           20200.00
00279           20000.00
00280           19600.00
00281           19600.00
00282           19400.00
00283           19000.00
00284           19000.00
00285           18800.00
00286           18600.00
00287           18200.00
00288           18000.00
00289           17800.00
00290           17400.00
00291           17200.00
00292           17000.00
00293           16600.00
00294           16600.00
00295           16200.00
00296           15800.00
00297           15400.00
00298           15400.00
00299           14800.00
00300           14800.00
00301           14600.00
00302           14000.00
00303           13800.00
00304           13400.00
00305           13200.00
00306           12600.00
00307           12400.00
00308           11800.00
00309           11800.00
00310           11400.00
00311           11000.00
00312           10600.00
00313           10200.00
00314            9800.00
00315            9400.00
00316            9000.00
00317            8600.00
00318            8200.00
00319            8000.00
00320            7600.00
00321            7000.00
00322            6600.00
00323            6200.00
00324            5800.00
00325            5600.00
00326            5200.00
00327            4600.00
00328            4200.00
00329            3800.00
00330            3400.00
00331            3000.00
00332            2600.00
00333            2200.00
00334            1800.00
00335            1400.00
00336            1000.00
00337             400.00
00338             200.00
00339            -400.00
00340            -600.00
00341           -1200.00
00342           -1400.00
00343           -1800.00
00344           -2200.00
00345           -2600.00
00346           -2800.00
00347           -3400.00
00348           -4000.00
00349           -4600.00
00350           -5000.00
00351           -5400.00
00352           -5200.00
00353           -5800.00
00354           -6200.00
00355           -6800.00
00356           -7000.00
00357           -7400.00
00358           -7800.00
00359           -8200.00
00360           -8600.00
00361           -9200.00
00362           -9400.00
00363           -9600.00
00364          -10200.00
00365          -10600.00
00366          -10800.00
00367          -11000.00
00368          -11600.00
00369          -11800.00
00370          -12400.00
00371          -12600.00
00372          -13000.00
00373          -13400.00
00374          -13800.00
00375          -14000.00
00376          -14400.00
00377          -14800.00
00378          -15000.00
00379          -15400.00
00380          -15600.00
00381          -15800.00
00382          -16200.00
00383          -16600.00
00384          -17000.00
00385          -17000.00
00386          -17400.00
00387          -17600.00
00388          -18000.00
00389          -18000.00
00390          -18600.00
00391          -18800.00
00392          -19000.00
00393          -19000.00
00394          -19400.00
00395          -19600.00
00396          -19600.00
00397          -19800.00
00398          -20200.00
00399          -20200.00
00400          -20400.00
00401          -20600.00
00402          -20600.00
00403          -21000.00
00404          -21000.00
00405          -21200.00
00406          -21200.00
00407          -21400.00
00408          -21400.00
00409          -21800.00
00410          -21800.00
00411          -22000.00
00412          -22000.00
00413          -22000.00
00414          -22000.00
00415          -22000.00
00416          -22200.00
00417          -22200.00
00418          -22200.00
00419          -22200.00
00420          -22200.00
00421          -22200.00
00422          -22200.00
00423          -22000.00
00424          -22200.00
00425          -22200.00
00426          -22200.00
00427          -22000.00
00428          -22000.00
00429          -22000.00
00430          -21800.00
00431          -21800.00
00432          -21400.00
00433          -21400.00
00434          -21400.00
00435          -21400.00
00436          -21400.00
00437          -21200.00
00438          -21200.00
00439          -21000.00
00440          -20600.00
00441          -20600.00
00442          -20400.00
00443          -20400.00
00444          -20400.00
00445          -19800.00
00446          -19800.00
00447          -19600.00
00448          -19200.00
00449          -19000.00
00450          -18800.00
00451          -18800.00
00452          -18400.00
00453          -18200.00
00454          -18000.00
00455          -17800.00
00456          -17400.00
00457          -17200.00
00458          -17000.00
00459          -16600.00
00460          -16600.00
00461          -16000.00
00462          -15800.00
00463          -15600.00
00464          -15400.00
00465          -15000.00
00466          -14600.00
00467          -14200.00
00468          -14000.00
00469          -13800.00
00470          -13400.00
00471          -13200.00
00472          -12600.00
00473          -12400.00
00474          -11800.00
00475          -11600.00
00476          -11400.00
00477          -10800.00
00478          -10600.00
00479          -10200.00
00480           -9800.00
00481           -9400.00
00482           -9000.00
00483           -8600.00
00484           -8400.00
00485           -7800.00
00486           -7600.00
00487           -7000.00
00488           -6800.00
00489           -6200.00
00490           -6000.00
00491           -5400.00
00492           -5000.00
00493           -4600.00
00494           -4200.00
00495           -3800.00
00496           -3400.00
00497           -3000.00
00498           -2600.00
00499           -2200.00
00500           -1600.00
00501           -1200.00
00502           -1000.00
00503            -600.00
00504               0.00
00505             400.00
00506             600.00
00507            1200.00
00508            1400.00
00509            2000.00
00510            2200.00
00511            2600.00
00512            3000.00
00513            3400.00
00514            4000.00
00515            4400.00
00516            5000.00
00517            5200.00
00518            5600.00
00519            5800.00
00520            6200.00
00521            6600.00
00522            6800.00
00523            7400.00
00524            7800.00
00525            8200.00
00526            8400.00
00527            9000.00
00528            9400.00
00529            9800.00
00530           10000.00
00531           10600.00
00532           10800.00
00533           11400.00
00534           11600.00
00535           11800.00
00536           12400.00
00537           12600.00
00538           13000.00
00539           13400.00
00540           13800.00
00541           14000.00
00542           14400.00
00543           14600.00
00544           15000.00
00545           15400.00
00546           15600.00
00547           15800.00
00548           16200.00
00549           16600.00
00550           17000.00
00551           17000.00
00552           17200.00
00553           17600.00
00554           18000.00
00555           18200.00
00556           18400.00
00557           18600.00
00558           18800.00
00559           19000.00
00560           19400.00
00561           19400.00
00562           19600.00
00563           19800.00
00564           20200.00
00565           20200.00
00566           20400.00
00567           20400.00
00568           21000.00
00569           21000.00
00570           21200.00
00571           21200.00
00572           21200.00
00573           21400.00
00574           21400.00
00575           21800.00
00576           21800.00
00577           21800.00
00578           21800.00
00579           21800.00
00580           22000.00
00581           22000.00
00582           22200.00
00583           22200.00
00584           22200.00
00585           22200.00
00586           22200.00
00587           22200.00
00588           22200.00
00589           22200.00
00590           22200.00
00591           22200.00
00592           22000.00
00593           22000.00
00594           22000.00
00595           22000.00
00596           21800.00
00597           21800.00
00598           21800.00
00599           21600.00
00600           21400.00
00601           21400.00
00602           21200.00
00603           21200.00
00604           21200.00
00605           21000.00
00606           20800.00
00607           20600.00
00608           20400.00
00609           20400.00
00610           20200.00
00611           20200.00
00612           19800.00
00613           19600.00
00614           19600.00
00615           19200.00
00616           19000.00
00617           18800.00
00618           18600.00
00619           18200.00
00620           18000.00
00621           18000.00
00622           17400.00
00623           17400.00
00624           17000.00
00625           17000.00
00626           16400.00
00627           16200.00
00628           16000.00
00629           15600.00
00630           15400.00
00631           15000.00
00632           14800.00
00633           14600.00
00634           14000.00
00635           13800.00
00636           13400.00
00637           13200.00
00638           12800.00
00639           12400.00
00640           12200.00
00641           11600.00
00642           11400.00
00643           11000.00
00644           10600.00
00645           10000.00
00646           10000.00
00647            9400.00
00648            9200.00
00649            8600.00
00650            8400.00
00651            8000.00
00652            7400.00
00653            7000.00
00654            6600.00
00655            6200.00
00656            5800.00
00657            5400.00
00658            5200.00
00659            4600.00
00660            4200.00
00661            3800.00
00662            3600.00
00663            3000.00
00664            2600.00
00665            2400.00
00666            1800.00
00667            1200.00
00668            1000.00
00669             400.00
00670             200.00
00671            -400.00
00672            -600.00
00673           -1000.00
00674           -1400.00
00675           -1800.00
00676           -2200.00
00677           -2600.00
00678           -2800.00
00679           -3400.00
00680           -3800.00
00681           -4400.00
00682           -5000.00
00683           -5200.00
00684           -5400.00
00685           -5400.00
00686           -6200.00
00687           -6800.00
00688           -7000.00
00689           -7600.00
00690           -7800.00
00691           -8200.00
00692           -8600.00
00693           -9000.00
00694           -9400.00
00695           -9400.00
00696          -10200.00
00697          -10600.00
00698          -10800.00
00699          -11200.00
00700          -11600.00
00701          -12000.00
00702          -12400.00
00703          -12600.00
00704          -13000.00
00705          -13200.00
00706          -13800.00
00707          -14000.00
00708          -14200.00
00709          -14800.00
00710          -15000.00
00711          -15400.00
00712          -15600.00
00713          -15800.00
00714          -16200.00
00715          -16400.00
00716          -16600.00
00717          -17200.00
00718          -17400.00
00719          -17600.00
00720          -18000.00
00721          -18000.00
00722          -18400.00
00723          -18600.00
00724          -18800.00
00725          -19000.00
00726          -19200.00
00727          -19600.00
00728          -19800.00
00729          -19800.00
00730          -20200.00
00731          -20200.00
00732          -20400.00
00733          -20600.00
00734          -20600.00
00735          -21000.00
00736          -21200.00
00737          -21200.00
00738          -21400.00
00739          -21400.00
00740          -21400.00
00741          -21400.00
00742          -21800.00
00743          -21800.00
00744          -22000.00
00745          -22000.00
00746          -22000.00
00747          -22000.00
00748          -22200.00
00749          -22000.00
00750          -22000.00
00751          -22000.00
00752          -22200.00
00753          -22200.00
00754          -22200.00
00755          -22000.00
00756          -22200.00
00757          -22000.00
00758          -22000.00
00759          -22000.00
00760          -22000.00
00761          -22000.00
00762          -21800.00
00763          -21800.00
00764          -21600.00
00765          -21400.00
00766          -21400.00
