Unit:(mV)
                     CH1
Frequency    301.046 kHz
00001            1000.00
00002            1000.00
00003             600.00
00004             400.00
00005             200.00
00006             200.00
00007            -400.00
00008            -400.00
00009            -600.00
00010           -1000.00
00011           -1000.00
00012           -1200.00
00013           -1400.00
00014           -1800.00
00015           -2000.00
00016           -2200.00
00017           -2800.00
00018           -2800.00
00019           -2800.00
00020           -2800.00
00021           -3400.00
00022           -3600.00
00023           -3600.00
00024           -4000.00
00025           -4200.00
00026           -4200.00
00027           -4600.00
00028           -5000.00
00029           -5000.00
00030           -5200.00
00031           -5400.00
00032           -5800.00
00033           -6000.00
00034           -6000.00
00035           -6200.00
00036           -6600.00
00037           -6600.00
00038           -6800.00
00039           -7000.00
00040           -7200.00
00041           -7400.00
00042           -7600.00
00043           -7600.00
00044           -8000.00
00045           -8200.00
00046           -8400.00
00047           -8600.00
00048           -8600.00
00049           -8600.00
00050           -9000.00
00051           -9200.00
00052           -9200.00
00053           -9400.00
00054           -9400.00
00055           -9800.00
00056           -9800.00
00057          -10000.00
00058          -10200.00
00059          -10200.00
00060          -10600.00
00061          -10600.00
00062          -10600.00
00063          -10800.00
00064          -10800.00
00065          -11000.00
00066          -11000.00
00067          -11200.00
00068          -11400.00
00069          -11400.00
00070          -11400.00
00071          -11400.00
00072          -11600.00
00073          -11600.00
00074          -11600.00
00075          -11800.00
00076          -11800.00
00077          -11800.00
00078          -12000.00
00079          -12200.00
00080          -12000.00
00081          -12200.00
00082          -12200.00
00083          -12200.00
00084          -12400.00
00085          -12200.00
00086          -12200.00
00087          -12400.00
00088          -12200.00
00089          -12200.00
00090          -12200.00
00091          -12200.00
00092          -12200.00
00093          -12400.00
00094          -12000.00
00095          -12200.00
00096          -12200.00
00097          -12200.00
00098          -11800.00
00099          -11800.00
00100          -11800.00
00101          -11800.00
00102          -11800.00
00103          -11600.00
00104          -11600.00
00105          -11600.00
00106          -11600.00
00107          -11400.00
00108          -11400.00
00109          -11400.00
00110          -11400.00
00111          -11000.00
00112          -11000.00
00113          -10800.00
00114          -10800.00
00115          -10600.00
00116          -10600.00
00117          -10400.00
00118          -10200.00
00119          -10200.00
00120          -10200.00
00121          -10000.00
00122           -9800.00
00123           -9800.00
00124           -9600.00
00125           -9400.00
00126           -9200.00
00127           -9200.00
00128           -9000.00
00129           -8600.00
00130           -8600.00
00131           -8400.00
00132           -8400.00
00133           -8400.00
00134           -7800.00
00135           -7800.00
00136           -7600.00
00137           -7400.00
00138           -7400.00
00139           -7000.00
00140           -7000.00
00141           -6800.00
00142           -6600.00
00143           -6200.00
00144           -6000.00
00145           -6000.00
00146           -5800.00
00147           -5400.00
00148           -5400.00
00149           -5200.00
00150           -5000.00
00151           -4600.00
00152           -4400.00
00153           -4200.00
00154           -3800.00
00155           -3800.00
00156           -3600.00
00157           -3400.00
00158           -3000.00
00159           -2800.00
00160           -2800.00
00161           -2200.00
00162           -2200.00
00163           -2000.00
00164           -1800.00
00165           -1600.00
00166           -1200.00
00167           -1200.00
00168            -600.00
00169            -600.00
00170            -400.00
00171            -200.00
00172             200.00
00173             400.00
00174             400.00
00175             600.00
00176            1000.00
00177            1200.00
00178            1400.00
00179            1600.00
00180            1800.00
00181            2000.00
00182            2200.00
00183            2600.00
00184            3000.00
00185            3000.00
00186            3000.00
00187            3400.00
00188            3600.00
00189            3800.00
00190            3800.00
00191            4200.00
00192            4200.00
00193            4400.00
00194            4800.00
00195            5000.00
00196            5200.00
00197            5400.00
00198            5800.00
00199            5800.00
00200            6200.00
00201            6400.00
00202            6600.00
00203            6800.00
00204            6800.00
00205            6800.00
00206            7400.00
00207            7400.00
00208            7600.00
00209            7800.00
00210            8000.00
00211            8200.00
00212            8200.00
00213            8400.00
00214            8600.00
00215            8600.00
00216            9000.00
00217            9200.00
00218            9400.00
00219            9400.00
00220            9800.00
00221            9800.00
00222           10000.00
00223           10000.00
00224           10200.00
00225           10200.00
00226           10600.00
00227           10600.00
00228           10800.00
00229           10800.00
00230           10800.00
00231           11000.00
00232           11000.00
00233           11200.00
00234           11400.00
00235           11400.00
00236           11600.00
00237           11600.00
00238           11600.00
00239           11600.00
00240           11800.00
00241           11800.00
00242           11800.00
00243           11800.00
00244           12000.00
00245           12200.00
00246           12200.00
00247           12200.00
00248           12200.00
00249           12200.00
00250           12200.00
00251           12200.00
00252           12200.00
00253           12200.00
00254           12200.00
00255           12200.00
00256           12200.00
00257           12200.00
00258           12200.00
00259           12000.00
00260           12200.00
00261           12200.00
00262           12000.00
00263           12200.00
00264           12000.00
00265           11800.00
00266           11800.00
00267           11800.00
00268           11800.00
00269           11800.00
00270           11600.00
00271           11600.00
00272           11600.00
00273           11400.00
00274           11400.00
00275           11200.00
00276           11400.00
00277           11000.00
00278           11000.00
00279           10800.00
00280           10800.00
00281           10800.00
00282           10600.00
00283           10600.00
00284           10600.00
00285           10200.00
00286           10000.00
00287           10000.00
00288           10000.00
00289            9800.00
00290            9400.00
00291            9400.00
00292            9400.00
00293            9200.00
00294            9000.00
00295            9000.00
00296            8800.00
00297            8400.00
00298            8400.00
00299            8200.00
00300            8200.00
00301            8000.00
00302            7600.00
00303            7600.00
00304            7400.00
00305            7200.00
00306            6800.00
00307            6800.00
00308            6600.00
00309            6200.00
00310            6200.00
00311            6000.00
00312            5800.00
00313            5800.00
00314            5200.00
00315            5200.00
00316            5000.00
00317            4600.00
00318            4400.00
00319            4200.00
00320            4200.00
00321            3800.00
00322            3600.00
00323            3400.00
00324            3200.00
00325            3000.00
00326            2600.00
00327            2600.00
00328            2200.00
00329            2000.00
00330            1800.00
00331            1800.00
00332            1200.00
00333            1200.00
00334            1000.00
00335             600.00
00336             400.00
00337             400.00
00338               0.00
00339            -200.00
00340            -400.00
00341            -600.00
00342           -1000.00
00343           -1200.00
00344           -1200.00
00345           -1400.00
00346           -1600.00
00347           -1800.00
00348           -2200.00
00349           -2800.00
00350           -2800.00
00351           -2800.00
00352           -2800.00
00353           -3400.00
00354           -3600.00
00355           -3600.00
00356           -3800.00
00357           -4200.00
00358           -4400.00
00359           -4400.00
00360           -4600.00
00361           -5000.00
00362           -5000.00
00363           -5400.00
00364           -5600.00
00365           -5800.00
00366           -6200.00
00367           -6200.00
00368           -6200.00
00369           -6800.00
00370           -6800.00
00371           -7000.00
00372           -7000.00
00373           -7400.00
00374           -7600.00
00375           -7800.00
00376           -7800.00
00377           -8200.00
00378           -8400.00
00379           -8600.00
00380           -8600.00
00381           -8600.00
00382           -9000.00
00383           -9200.00
00384           -9200.00
00385           -9400.00
00386           -9400.00
00387           -9800.00
00388          -10000.00
00389          -10000.00
00390          -10200.00
00391          -10200.00
00392          -10600.00
00393          -10600.00
00394          -10600.00
00395          -10800.00
00396          -10800.00
00397          -11000.00
00398          -11000.00
00399          -11000.00
00400          -11000.00
00401          -11400.00
00402          -11400.00
00403          -11400.00
00404          -11600.00
00405          -11600.00
00406          -11800.00
00407          -11800.00
00408          -11800.00
00409          -11800.00
00410          -11800.00
00411          -12000.00
00412          -11800.00
00413          -12200.00
00414          -12200.00
00415          -12200.00
00416          -12200.00
00417          -12200.00
00418          -12400.00
00419          -12200.00
00420          -12400.00
00421          -12200.00
00422          -12200.00
00423          -12200.00
00424          -12200.00
00425          -12000.00
00426          -12200.00
00427          -12000.00
00428          -12200.00
00429          -12200.00
00430          -11800.00
00431          -11800.00
00432          -11800.00
00433          -11800.00
00434          -11800.00
00435          -11600.00
00436          -11600.00
00437          -11600.00
00438          -11600.00
00439          -11400.00
00440          -11400.00
00441          -11000.00
00442          -11000.00
00443          -11000.00
00444          -11000.00
00445          -10800.00
00446          -10800.00
00447          -10800.00
00448          -10600.00
00449          -10600.00
00450          -10200.00
00451          -10200.00
00452          -10200.00
00453          -10200.00
00454          -10000.00
00455           -9800.00
00456           -9400.00
00457           -9400.00
00458           -9400.00
00459           -9200.00
00460           -9000.00
00461           -9000.00
00462           -8600.00
00463           -8600.00
00464           -8400.00
00465           -8200.00
00466           -8200.00
00467           -7800.00
00468           -7800.00
00469           -7600.00
00470           -7400.00
00471           -7200.00
00472           -7000.00
00473           -6800.00
00474           -6600.00
00475           -6400.00
00476           -6200.00
00477           -6000.00
00478           -5800.00
00479           -5400.00
00480           -5400.00
00481           -5200.00
00482           -5000.00
00483           -4800.00
00484           -4400.00
00485           -4200.00
00486           -4000.00
00487           -3800.00
00488           -3600.00
00489           -3400.00
00490           -3000.00
00491           -2800.00
00492           -2800.00
00493           -2600.00
00494           -2200.00
00495           -2000.00
00496           -2000.00
00497           -1400.00
00498           -1400.00
00499           -1200.00
00500           -1000.00
00501            -600.00
00502            -400.00
00503            -200.00
00504             200.00
00505             200.00
00506             400.00
00507             600.00
00508            1000.00
00509            1200.00
00510            1200.00
00511            1600.00
00512            1800.00
00513            2000.00
00514            2200.00
00515            2600.00
00516            2800.00
00517            2800.00
00518            3000.00
00519            3400.00
00520            3600.00
00521            3600.00
00522            3800.00
00523            4200.00
00524            4200.00
00525            4400.00
00526            4600.00
00527            5000.00
00528            5200.00
00529            5400.00
00530            5600.00
00531            5800.00
00532            6000.00
00533            6200.00
00534            6600.00
00535            6600.00
00536            6800.00
00537            6800.00
00538            7200.00
00539            7400.00
00540            7800.00
00541            7800.00
00542            8000.00
00543            8200.00
00544            8400.00
00545            8600.00
00546            8600.00
00547            9000.00
00548            9000.00
00549            9200.00
00550            9200.00
00551            9400.00
00552            9800.00
00553           10000.00
00554           10000.00
00555           10000.00
00556           10200.00
00557           10200.00
00558           10400.00
00559           10600.00
00560           10600.00
00561           10600.00
00562           10800.00
00563           11000.00
00564           11200.00
00565           11200.00
00566           11400.00
00567           11400.00
00568           11600.00
00569           11600.00
00570           11600.00
00571           11800.00
00572           11800.00
00573           11800.00
00574           11800.00
00575           12200.00
00576           12000.00
00577           12200.00
00578           12200.00
00579           12200.00
00580           12200.00
00581           12200.00
00582           12200.00
00583           12200.00
00584           12200.00
00585           12200.00
00586           12200.00
00587           12200.00
00588           12200.00
00589           12200.00
00590           12200.00
00591           12200.00
00592           12200.00
00593           12200.00
00594           12200.00
00595           12200.00
00596           12200.00
00597           11800.00
00598           12000.00
00599           11800.00
00600           11800.00
00601           11800.00
00602           11800.00
00603           11600.00
00604           11600.00
00605           11600.00
00606           11600.00
00607           11400.00
00608           11400.00
00609           11400.00
00610           11000.00
00611           11000.00
00612           10800.00
00613           10600.00
00614           10800.00
00615           10600.00
00616           10600.00
00617           10600.00
00618           10000.00
00619           10200.00
00620           10000.00
00621            9800.00
00622            9800.00
00623            9600.00
00624            9400.00
00625            9200.00
00626            9000.00
00627            9000.00
00628            8600.00
00629            8600.00
00630            8400.00
00631            8200.00
00632            8200.00
00633            8000.00
00634            7600.00
00635            7600.00
00636            7400.00
00637            7400.00
00638            6800.00
00639            6800.00
00640            6600.00
00641            6400.00
00642            6200.00
00643            5800.00
00644            5800.00
00645            5600.00
00646            5400.00
00647            5200.00
00648            5000.00
00649            4600.00
00650            4400.00
00651            4200.00
00652            4200.00
00653            3800.00
00654            3600.00
00655            3400.00
00656            3200.00
00657            3000.00
00658            2800.00
00659            2600.00
00660            2200.00
00661            2000.00
00662            2000.00
00663            1800.00
00664            1200.00
00665            1200.00
00666            1000.00
00667             600.00
00668             400.00
00669             400.00
00670             200.00
00671            -200.00
00672            -400.00
00673            -600.00
00674            -600.00
00675           -1000.00
00676           -1200.00
00677           -1200.00
00678           -1800.00
00679           -2000.00
00680           -2200.00
00681           -2600.00
00682           -2800.00
00683           -2800.00
00684           -2800.00
00685           -3400.00
00686           -3400.00
00687           -3600.00
00688           -3800.00
00689           -4200.00
00690           -4200.00
00691           -4400.00
00692           -5000.00
00693           -5000.00
00694           -5200.00
00695           -5400.00
00696           -5600.00
00697           -6000.00
00698           -6000.00
00699           -6200.00
00700           -6400.00
00701           -6600.00
00702           -6800.00
00703           -7000.00
00704           -7200.00
00705           -7400.00
00706           -7600.00
00707           -7600.00
00708           -7800.00
00709           -8200.00
00710           -8400.00
00711           -8600.00
00712           -8600.00
00713           -8600.00
00714           -9200.00
00715           -9200.00
00716           -9200.00
00717           -9400.00
00718           -9400.00
00719           -9800.00
00720          -10000.00
00721          -10000.00
00722          -10200.00
00723          -10200.00
00724          -10200.00
00725          -10600.00
00726          -10600.00
00727          -10800.00
00728          -10800.00
00729          -11000.00
00730          -11000.00
00731          -11000.00
00732          -11400.00
00733          -11400.00
00734          -11400.00
00735          -11600.00
00736          -11600.00
00737          -11600.00
00738          -11800.00
00739          -11600.00
00740          -11800.00
00741          -11800.00
00742          -11800.00
00743          -11800.00
00744          -12200.00
00745          -12200.00
00746          -11800.00
00747          -12200.00
00748          -12200.00
00749          -12200.00
00750          -12200.00
00751          -12200.00
00752          -12200.00
00753          -12200.00
00754          -12200.00
00755          -12200.00
00756          -12200.00
00757          -12200.00
00758          -12200.00
00759          -11800.00
00760          -12200.00
00761          -12000.00
00762          -12200.00
00763          -11800.00
00764          -11800.00
00765          -11800.00
00766          -11800.00
