Unit:(mV)
                     CH1
Frequency    301.351 kHz
00001            3800.00
00002            3400.00
00003            2800.00
00004            2400.00
00005            1800.00
00006            1400.00
00007            1000.00
00008             400.00
00009               0.00
00010            -600.00
00011           -1000.00
00012           -1200.00
00013           -1800.00
00014           -2200.00
00015           -2800.00
00016           -3000.00
00017           -3600.00
00018           -4200.00
00019           -5000.00
00020           -5400.00
00021           -5800.00
00022           -6000.00
00023           -6200.00
00024           -7000.00
00025           -7600.00
00026           -7800.00
00027           -8400.00
00028           -9000.00
00029           -9200.00
00030           -9800.00
00031          -10200.00
00032          -10600.00
00033          -11000.00
00034          -11600.00
00035          -12200.00
00036          -12400.00
00037          -12800.00
00038          -13200.00
00039          -13400.00
00040          -14000.00
00041          -14400.00
00042          -15000.00
00043          -15400.00
00044          -15600.00
00045          -15800.00
00046          -16400.00
00047          -16800.00
00048          -17200.00
00049          -17400.00
00050          -18000.00
00051          -18200.00
00052          -18600.00
00053          -19000.00
00054          -19400.00
00055          -19800.00
00056          -19800.00
00057          -20400.00
00058          -20600.00
00059          -21000.00
00060          -21200.00
00061          -21600.00
00062          -22000.00
00063          -22000.00
00064          -22200.00
00065          -22600.00
00066          -22800.00
00067          -23000.00
00068          -23000.00
00069          -23400.00
00070          -23600.00
00071          -23800.00
00072          -23800.00
00073          -24200.00
00074          -24400.00
00075          -24400.00
00076          -24600.00
00077          -24600.00
00078          -24800.00
00079          -24800.00
00080          -25000.00
00081          -25000.00
00082          -25000.00
00083          -25000.00
00084          -25000.00
00085          -25000.00
00086          -25000.00
00087          -25000.00
00088          -25000.00
00089          -25000.00
00090          -25000.00
00091          -25000.00
00092          -25000.00
00093          -25000.00
00094          -25000.00
00095          -25000.00
00096          -25000.00
00097          -25000.00
00098          -25000.00
00099          -25000.00
00100          -25000.00
00101          -25000.00
00102          -25000.00
00103          -25000.00
00104          -25000.00
00105          -25000.00
00106          -24600.00
00107          -24600.00
00108          -24400.00
00109          -24400.00
00110          -24200.00
00111          -24000.00
00112          -23800.00
00113          -23600.00
00114          -23600.00
00115          -23400.00
00116          -23000.00
00117          -23000.00
00118          -22600.00
00119          -22400.00
00120          -22200.00
00121          -22000.00
00122          -21800.00
00123          -21400.00
00124          -21200.00
00125          -21000.00
00126          -20400.00
00127          -20400.00
00128          -20000.00
00129          -19600.00
00130          -19400.00
00131          -19000.00
00132          -18800.00
00133          -18200.00
00134          -18000.00
00135          -17800.00
00136          -17200.00
00137          -17000.00
00138          -16600.00
00139          -16200.00
00140          -15600.00
00141          -15400.00
00142          -15000.00
00143          -14600.00
00144          -14000.00
00145          -13800.00
00146          -13400.00
00147          -13000.00
00148          -12400.00
00149          -12200.00
00150          -11600.00
00151          -11000.00
00152          -10800.00
00153          -10200.00
00154          -10000.00
00155           -9400.00
00156           -9000.00
00157           -8600.00
00158           -7800.00
00159           -7400.00
00160           -7000.00
00161           -6600.00
00162           -6000.00
00163           -5600.00
00164           -5200.00
00165           -4600.00
00166           -4400.00
00167           -3800.00
00168           -3400.00
00169           -2800.00
00170           -2200.00
00171           -1800.00
00172           -1200.00
00173           -1000.00
00174            -400.00
00175             200.00
00176             600.00
00177            1000.00
00178            1400.00
00179            1800.00
00180            2200.00
00181            2800.00
00182            3400.00
00183            3600.00
00184            4200.00
00185            5000.00
00186            5400.00
00187            5800.00
00188            6200.00
00189            6400.00
00190            7000.00
00191            7400.00
00192            7800.00
00193            8400.00
00194            9000.00
00195            9200.00
00196            9800.00
00197           10200.00
00198           10600.00
00199           11000.00
00200           11600.00
00201           12000.00
00202           12400.00
00203           12600.00
00204           13200.00
00205           13800.00
00206           14000.00
00207           14600.00
00208           14800.00
00209           15400.00
00210           15600.00
00211           15800.00
00212           16400.00
00213           17000.00
00214           17200.00
00215           17800.00
00216           18200.00
00217           18400.00
00218           18600.00
00219           19000.00
00220           19400.00
00221           19600.00
00222           20200.00
00223           20200.00
00224           20600.00
00225           21000.00
00226           21200.00
00227           21400.00
00228           21800.00
00229           22000.00
00230           22200.00
00231           22400.00
00232           22800.00
00233           23000.00
00234           23400.00
00235           23400.00
00236           23600.00
00237           23600.00
00238           23800.00
00239           24200.00
00240           24400.00
00241           24400.00
00242           24400.00
00243           24600.00
00244           24800.00
00245           25000.00
00246           25000.00
00247           25000.00
00248           25000.00
00249           25000.00
00250           25000.00
00251           25000.00
00252           25000.00
00253           25000.00
00254           25000.00
00255           25000.00
00256           25000.00
00257           25000.00
00258           25000.00
00259           25000.00
00260           25000.00
00261           25000.00
00262           25000.00
00263           25000.00
00264           25000.00
00265           25000.00
00266           25000.00
00267           25000.00
00268           25000.00
00269           25000.00
00270           25000.00
00271           24800.00
00272           24600.00
00273           24600.00
00274           24400.00
00275           24400.00
00276           24200.00
00277           23800.00
00278           23800.00
00279           23800.00
00280           23400.00
00281           23400.00
00282           23000.00
00283           22800.00
00284           22600.00
00285           22200.00
00286           22200.00
00287           21800.00
00288           21800.00
00289           21400.00
00290           21000.00
00291           21000.00
00292           20400.00
00293           20200.00
00294           20000.00
00295           19600.00
00296           19400.00
00297           19000.00
00298           18600.00
00299           18400.00
00300           18000.00
00301           17600.00
00302           17200.00
00303           17000.00
00304           16600.00
00305           16200.00
00306           15800.00
00307           15400.00
00308           15000.00
00309           14600.00
00310           14200.00
00311           13800.00
00312           13200.00
00313           13000.00
00314           12600.00
00315           12200.00
00316           11800.00
00317           11400.00
00318           10600.00
00319           10200.00
00320            9800.00
00321            9400.00
00322            9000.00
00323            8400.00
00324            8200.00
00325            7600.00
00326            7200.00
00327            6600.00
00328            6000.00
00329            5600.00
00330            5200.00
00331            4600.00
00332            4200.00
00333            3600.00
00334            3400.00
00335            2800.00
00336            2200.00
00337            1800.00
00338            1400.00
00339            1000.00
00340             400.00
00341            -200.00
00342            -600.00
00343           -1000.00
00344           -1400.00
00345           -2000.00
00346           -2200.00
00347           -2800.00
00348           -3000.00
00349           -3600.00
00350           -4400.00
00351           -5200.00
00352           -5400.00
00353           -6000.00
00354           -6000.00
00355           -6200.00
00356           -7000.00
00357           -7600.00
00358           -8000.00
00359           -8600.00
00360           -9000.00
00361           -9200.00
00362          -10000.00
00363          -10200.00
00364          -10800.00
00365          -11000.00
00366          -11600.00
00367          -12200.00
00368          -12400.00
00369          -13000.00
00370          -13400.00
00371          -13800.00
00372          -14200.00
00373          -14600.00
00374          -15000.00
00375          -15400.00
00376          -15800.00
00377          -16200.00
00378          -16600.00
00379          -16800.00
00380          -17200.00
00381          -17800.00
00382          -18000.00
00383          -18600.00
00384          -18800.00
00385          -19000.00
00386          -19400.00
00387          -19800.00
00388          -20200.00
00389          -20400.00
00390          -20600.00
00391          -21000.00
00392          -21400.00
00393          -21600.00
00394          -21800.00
00395          -22000.00
00396          -22200.00
00397          -22600.00
00398          -22800.00
00399          -23000.00
00400          -23000.00
00401          -23400.00
00402          -23600.00
00403          -23800.00
00404          -23800.00
00405          -24200.00
00406          -24400.00
00407          -24600.00
00408          -24600.00
00409          -24600.00
00410          -24800.00
00411          -25000.00
00412          -25000.00
00413          -25000.00
00414          -25000.00
00415          -25000.00
00416          -25000.00
00417          -25000.00
00418          -25000.00
00419          -25000.00
00420          -25000.00
00421          -25000.00
00422          -25000.00
00423          -25000.00
00424          -25000.00
00425          -25000.00
00426          -25000.00
00427          -25000.00
00428          -25000.00
00429          -25000.00
00430          -25000.00
00431          -25000.00
00432          -25000.00
00433          -25000.00
00434          -25000.00
00435          -25000.00
00436          -25000.00
00437          -24600.00
00438          -24600.00
00439          -24600.00
00440          -24400.00
00441          -24200.00
00442          -24200.00
00443          -23800.00
00444          -23800.00
00445          -23600.00
00446          -23600.00
00447          -23200.00
00448          -23000.00
00449          -23000.00
00450          -22800.00
00451          -22600.00
00452          -22200.00
00453          -22000.00
00454          -21400.00
00455          -21400.00
00456          -21200.00
00457          -21000.00
00458          -20400.00
00459          -20200.00
00460          -19800.00
00461          -19800.00
00462          -19400.00
00463          -18800.00
00464          -18800.00
00465          -18200.00
00466          -18000.00
00467          -17400.00
00468          -17200.00
00469          -17000.00
00470          -16600.00
00471          -16200.00
00472          -15800.00
00473          -15400.00
00474          -15000.00
00475          -14600.00
00476          -14200.00
00477          -13800.00
00478          -13200.00
00479          -13000.00
00480          -12400.00
00481          -11800.00
00482          -11600.00
00483          -11000.00
00484          -10600.00
00485          -10200.00
00486           -9800.00
00487           -9400.00
00488           -9000.00
00489           -8400.00
00490           -7800.00
00491           -7600.00
00492           -7000.00
00493           -6600.00
00494           -6000.00
00495           -5400.00
00496           -5200.00
00497           -4600.00
00498           -4400.00
00499           -3800.00
00500           -3200.00
00501           -2800.00
00502           -2200.00
00503           -1800.00
00504           -1200.00
00505            -800.00
00506            -400.00
00507             200.00
00508             600.00
00509            1000.00
00510            1600.00
00511            1800.00
00512            2400.00
00513            2600.00
00514            3400.00
00515            3600.00
00516            4200.00
00517            5000.00
00518            5400.00
00519            5800.00
00520            6200.00
00521            6600.00
00522            7000.00
00523            7400.00
00524            7800.00
00525            8400.00
00526            8600.00
00527            9400.00
00528            9800.00
00529           10200.00
00530           10600.00
00531           11000.00
00532           11600.00
00533           12200.00
00534           12400.00
00535           13000.00
00536           13200.00
00537           13800.00
00538           14000.00
00539           14600.00
00540           15000.00
00541           15400.00
00542           15800.00
00543           16200.00
00544           16400.00
00545           17000.00
00546           17200.00
00547           17800.00
00548           18000.00
00549           18600.00
00550           18600.00
00551           19000.00
00552           19400.00
00553           19800.00
00554           20200.00
00555           20400.00
00556           20600.00
00557           21200.00
00558           21200.00
00559           21400.00
00560           21800.00
00561           22000.00
00562           22200.00
00563           22600.00
00564           22800.00
00565           23000.00
00566           23400.00
00567           23400.00
00568           23400.00
00569           23800.00
00570           24000.00
00571           24200.00
00572           24400.00
00573           24400.00
00574           24600.00
00575           25000.00
00576           24800.00
00577           25000.00
00578           25000.00
00579           25000.00
00580           25000.00
00581           25000.00
00582           25000.00
00583           25000.00
00584           25000.00
00585           25000.00
00586           25000.00
00587           25000.00
00588           25000.00
00589           25000.00
00590           25000.00
00591           25000.00
00592           25000.00
00593           25000.00
00594           25000.00
00595           25000.00
00596           25000.00
00597           25000.00
00598           25000.00
00599           25000.00
00600           25000.00
00601           25000.00
00602           25000.00
00603           24800.00
00604           24800.00
00605           24600.00
00606           24400.00
00607           24400.00
00608           24200.00
00609           24200.00
00610           23800.00
00611           23800.00
00612           23400.00
00613           23400.00
00614           23000.00
00615           22800.00
00616           22600.00
00617           22200.00
00618           22000.00
00619           22000.00
00620           21600.00
00621           21400.00
00622           21200.00
00623           21000.00
00624           20400.00
00625           20200.00
00626           19800.00
00627           19600.00
00628           19200.00
00629           18800.00
00630           18600.00
00631           18200.00
00632           18000.00
00633           17600.00
00634           17200.00
00635           17000.00
00636           16400.00
00637           16200.00
00638           15800.00
00639           15400.00
00640           15000.00
00641           14600.00
00642           14000.00
00643           13600.00
00644           13200.00
00645           12800.00
00646           12400.00
00647           11800.00
00648           11400.00
00649           11000.00
00650           10600.00
00651           10200.00
00652            9800.00
00653            9200.00
00654            9000.00
00655            8400.00
00656            7800.00
00657            7600.00
00658            6800.00
00659            6600.00
00660            6000.00
00661            5800.00
00662            5200.00
00663            4600.00
00664            4200.00
00665            3600.00
00666            3000.00
00667            2800.00
00668            2200.00
00669            1800.00
00670            1200.00
00671            1000.00
00672             400.00
00673            -200.00
00674            -600.00
00675           -1200.00
00676           -1400.00
00677           -2000.00
00678           -2600.00
00679           -2800.00
00680           -3000.00
00681           -3600.00
00682           -4400.00
00683           -5000.00
00684           -5600.00
00685           -6000.00
00686           -6000.00
00687           -6400.00
00688           -7200.00
00689           -7600.00
00690           -8200.00
00691           -8600.00
00692           -8800.00
00693           -9400.00
00694           -9800.00
00695          -10200.00
00696          -10800.00
00697          -11000.00
00698          -11800.00
00699          -12200.00
00700          -12400.00
00701          -13000.00
00702          -13400.00
00703          -13800.00
00704          -14200.00
00705          -14600.00
00706          -15000.00
00707          -15600.00
00708          -15800.00
00709          -16400.00
00710          -16600.00
00711          -17200.00
00712          -17400.00
00713          -17800.00
00714          -18000.00
00715          -18400.00
00716          -18800.00
00717          -19000.00
00718          -19600.00
00719          -19800.00
00720          -20200.00
00721          -20400.00
00722          -20800.00
00723          -21000.00
00724          -21400.00
00725          -21800.00
00726          -22000.00
00727          -22000.00
00728          -22200.00
00729          -22600.00
00730          -22800.00
00731          -23000.00
00732          -23200.00
00733          -23400.00
00734          -23600.00
00735          -23800.00
00736          -23800.00
00737          -24000.00
00738          -24200.00
00739          -24400.00
00740          -24600.00
00741          -24600.00
00742          -24600.00
00743          -25000.00
00744          -25000.00
00745          -25000.00
00746          -25000.00
00747          -25000.00
00748          -25000.00
00749          -25000.00
00750          -25000.00
00751          -25000.00
00752          -25000.00
00753          -25000.00
00754          -25000.00
00755          -25000.00
00756          -25000.00
00757          -25000.00
00758          -25000.00
00759          -25000.00
00760          -25000.00
00761          -25000.00
00762          -25000.00
00763          -25000.00
00764          -25000.00
00765          -25000.00
00766          -25000.00
