Unit:(mV)
                     CH1
Frequency    302.264 kHz
00001            1400.00
00002            1200.00
00003            1200.00
00004            1200.00
00005            1000.00
00006            1000.00
00007             600.00
00008             800.00
00009             600.00
00010             600.00
00011             400.00
00012             400.00
00013             200.00
00014             200.00
00015             200.00
00016             200.00
00017            -200.00
00018            -200.00
00019            -200.00
00020            -400.00
00021            -400.00
00022            -400.00
00023            -600.00
00024            -600.00
00025            -600.00
00026            -600.00
00027           -1000.00
00028           -1000.00
00029           -1200.00
00030           -1200.00
00031           -1200.00
00032           -1400.00
00033           -1400.00
00034           -1400.00
00035           -1800.00
00036           -1400.00
00037           -1800.00
00038           -1800.00
00039           -2000.00
00040           -2200.00
00041           -2000.00
00042           -2200.00
00043           -2200.00
00044           -2200.00
00045           -2600.00
00046           -2600.00
00047           -2600.00
00048           -2600.00
00049           -2800.00
00050           -2800.00
00051           -3000.00
00052           -2800.00
00053           -2800.00
00054           -3000.00
00055           -3000.00
00056           -3000.00
00057           -3000.00
00058           -3200.00
00059           -3200.00
00060           -3400.00
00061           -3600.00
00062           -3400.00
00063           -3600.00
00064           -3600.00
00065           -3600.00
00066           -3800.00
00067           -3800.00
00068           -3800.00
00069           -3800.00
00070           -3800.00
00071           -3800.00
00072           -3800.00
00073           -4200.00
00074           -4200.00
00075           -4200.00
00076           -4200.00
00077           -4400.00
00078           -4200.00
00079           -4400.00
00080           -4400.00
00081           -4400.00
00082           -4400.00
00083           -4400.00
00084           -4400.00
00085           -4400.00
00086           -4400.00
00087           -4600.00
00088           -4600.00
00089           -4400.00
00090           -4600.00
00091           -4400.00
00092           -4400.00
00093           -4600.00
00094           -4600.00
00095           -4600.00
00096           -4600.00
00097           -4600.00
00098           -4600.00
00099           -4600.00
00100           -4600.00
00101           -4600.00
00102           -4400.00
00103           -4600.00
00104           -4600.00
00105           -4400.00
00106           -4600.00
00107           -4600.00
00108           -4400.00
00109           -4400.00
00110           -4400.00
00111           -4400.00
00112           -4400.00
00113           -4400.00
00114           -4400.00
00115           -4400.00
00116           -4400.00
00117           -4400.00
00118           -4400.00
00119           -4400.00
00120           -4200.00
00121           -4200.00
00122           -4200.00
00123           -4200.00
00124           -4000.00
00125           -3800.00
00126           -4000.00
00127           -3800.00
00128           -3800.00
00129           -3800.00
00130           -3800.00
00131           -3800.00
00132           -3600.00
00133           -3600.00
00134           -3600.00
00135           -3400.00
00136           -3600.00
00137           -3400.00
00138           -3400.00
00139           -3400.00
00140           -3200.00
00141           -3000.00
00142           -3000.00
00143           -3000.00
00144           -3000.00
00145           -2800.00
00146           -2800.00
00147           -2800.00
00148           -2800.00
00149           -2600.00
00150           -2800.00
00151           -2800.00
00152           -2600.00
00153           -2400.00
00154           -2200.00
00155           -2200.00
00156           -2000.00
00157           -2200.00
00158           -2000.00
00159           -2000.00
00160           -2000.00
00161           -1800.00
00162           -1600.00
00163           -1800.00
00164           -1400.00
00165           -1400.00
00166           -1400.00
00167           -1200.00
00168           -1200.00
00169           -1000.00
00170           -1200.00
00171           -1000.00
00172           -1000.00
00173            -800.00
00174            -600.00
00175            -600.00
00176            -400.00
00177            -400.00
00178            -400.00
00179            -400.00
00180            -200.00
00181               0.00
00182             200.00
00183             200.00
00184             200.00
00185             400.00
00186             400.00
00187             400.00
00188             600.00
00189             600.00
00190             600.00
00191            1000.00
00192            1000.00
00193            1000.00
00194            1000.00
00195            1200.00
00196            1200.00
00197            1400.00
00198            1400.00
00199            1400.00
00200            1600.00
00201            1600.00
00202            1800.00
00203            1800.00
00204            2000.00
00205            2000.00
00206            2200.00
00207            2000.00
00208            2200.00
00209            2200.00
00210            2200.00
00211            2600.00
00212            2600.00
00213            2400.00
00214            2600.00
00215            2600.00
00216            2800.00
00217            3000.00
00218            2800.00
00219            2800.00
00220            3000.00
00221            3000.00
00222            3200.00
00223            3400.00
00224            3200.00
00225            3400.00
00226            3400.00
00227            3400.00
00228            3600.00
00229            3600.00
00230            3600.00
00231            3600.00
00232            3800.00
00233            3800.00
00234            3600.00
00235            3800.00
00236            4200.00
00237            4000.00
00238            4200.00
00239            4200.00
00240            4200.00
00241            4200.00
00242            4200.00
00243            4200.00
00244            4200.00
00245            4400.00
00246            4200.00
00247            4400.00
00248            4400.00
00249            4400.00
00250            4400.00
00251            4400.00
00252            4400.00
00253            4200.00
00254            4400.00
00255            4600.00
00256            4400.00
00257            4600.00
00258            4400.00
00259            4600.00
00260            4600.00
00261            4600.00
00262            4600.00
00263            4600.00
00264            4600.00
00265            4600.00
00266            4600.00
00267            4600.00
00268            4600.00
00269            4600.00
00270            4600.00
00271            4600.00
00272            4400.00
00273            4600.00
00274            4400.00
00275            4600.00
00276            4400.00
00277            4400.00
00278            4400.00
00279            4400.00
00280            4200.00
00281            4400.00
00282            4400.00
00283            4200.00
00284            4400.00
00285            4200.00
00286            4200.00
00287            4200.00
00288            4200.00
00289            4200.00
00290            4200.00
00291            4000.00
00292            3800.00
00293            4000.00
00294            3800.00
00295            3800.00
00296            3600.00
00297            3600.00
00298            3600.00
00299            3600.00
00300            3400.00
00301            3600.00
00302            3400.00
00303            3400.00
00304            3400.00
00305            3400.00
00306            3400.00
00307            3200.00
00308            3200.00
00309            3000.00
00310            3000.00
00311            2800.00
00312            2800.00
00313            2800.00
00314            2600.00
00315            2800.00
00316            2600.00
00317            2600.00
00318            2400.00
00319            2600.00
00320            2200.00
00321            2200.00
00322            2000.00
00323            2000.00
00324            1800.00
00325            2000.00
00326            1800.00
00327            2000.00
00328            1800.00
00329            1600.00
00330            1400.00
00331            1400.00
00332            1400.00
00333            1200.00
00334            1200.00
00335            1200.00
00336            1000.00
00337            1000.00
00338            1000.00
00339             800.00
00340             400.00
00341             600.00
00342             400.00
00343             400.00
00344             400.00
00345             400.00
00346             200.00
00347               0.00
00348               0.00
00349            -200.00
00350            -200.00
00351            -400.00
00352            -400.00
00353            -400.00
00354            -600.00
00355            -800.00
00356            -600.00
00357            -600.00
00358           -1000.00
00359           -1200.00
00360           -1200.00
00361           -1200.00
00362           -1200.00
00363           -1400.00
00364           -1400.00
00365           -1400.00
00366           -1600.00
00367           -1800.00
00368           -1800.00
00369           -1800.00
00370           -2000.00
00371           -2000.00
00372           -2000.00
00373           -2200.00
00374           -2200.00
00375           -2200.00
00376           -2400.00
00377           -2600.00
00378           -2600.00
00379           -2400.00
00380           -2600.00
00381           -2800.00
00382           -2800.00
00383           -2800.00
00384           -2800.00
00385           -2800.00
00386           -3000.00
00387           -3000.00
00388           -3200.00
00389           -3200.00
00390           -3400.00
00391           -3400.00
00392           -3400.00
00393           -3600.00
00394           -3600.00
00395           -3600.00
00396           -3600.00
00397           -3800.00
00398           -3600.00
00399           -3800.00
00400           -3800.00
00401           -3800.00
00402           -3800.00
00403           -3800.00
00404           -4000.00
00405           -4000.00
00406           -4200.00
00407           -4200.00
00408           -4400.00
00409           -4400.00
00410           -4400.00
00411           -4400.00
00412           -4400.00
00413           -4400.00
00414           -4400.00
00415           -4400.00
00416           -4400.00
00417           -4400.00
00418           -4600.00
00419           -4600.00
00420           -4600.00
00421           -4600.00
00422           -4600.00
00423           -4600.00
00424           -4600.00
00425           -4600.00
00426           -4600.00
00427           -4600.00
00428           -4600.00
00429           -4600.00
00430           -4600.00
00431           -4600.00
00432           -4600.00
00433           -4600.00
00434           -4600.00
00435           -4600.00
00436           -4600.00
00437           -4400.00
00438           -4400.00
00439           -4400.00
00440           -4400.00
00441           -4400.00
00442           -4400.00
00443           -4400.00
00444           -4400.00
00445           -4400.00
00446           -4400.00
00447           -4400.00
00448           -4200.00
00449           -4200.00
00450           -4200.00
00451           -4200.00
00452           -4400.00
00453           -4200.00
00454           -3800.00
00455           -3800.00
00456           -3800.00
00457           -3800.00
00458           -3800.00
00459           -3800.00
00460           -3800.00
00461           -3800.00
00462           -3800.00
00463           -3600.00
00464           -3600.00
00465           -3600.00
00466           -3600.00
00467           -3600.00
00468           -3400.00
00469           -3400.00
00470           -3400.00
00471           -3000.00
00472           -3200.00
00473           -3000.00
00474           -3000.00
00475           -3000.00
00476           -3000.00
00477           -2800.00
00478           -2800.00
00479           -2800.00
00480           -2600.00
00481           -2800.00
00482           -2600.00
00483           -2600.00
00484           -2400.00
00485           -2200.00
00486           -2200.00
00487           -2200.00
00488           -2200.00
00489           -2000.00
00490           -2000.00
00491           -1800.00
00492           -2000.00
00493           -1800.00
00494           -1400.00
00495           -1400.00
00496           -1400.00
00497           -1200.00
00498           -1200.00
00499           -1200.00
00500           -1200.00
00501           -1000.00
00502            -800.00
00503           -1000.00
00504            -600.00
00505            -600.00
00506            -600.00
00507            -600.00
00508            -400.00
00509            -400.00
00510            -200.00
00511            -200.00
00512               0.00
00513             200.00
00514             200.00
00515             200.00
00516             400.00
00517             400.00
00518             400.00
00519             600.00
00520             600.00
00521             800.00
00522            1000.00
00523            1000.00
00524            1000.00
00525            1000.00
00526            1200.00
00527            1400.00
00528            1400.00
00529            1400.00
00530            1400.00
00531            1800.00
00532            1800.00
00533            1800.00
00534            2000.00
00535            2000.00
00536            2000.00
00537            2200.00
00538            2200.00
00539            2200.00
00540            2200.00
00541            2200.00
00542            2400.00
00543            2400.00
00544            2600.00
00545            2600.00
00546            2600.00
00547            2600.00
00548            2800.00
00549            2800.00
00550            2800.00
00551            3000.00
00552            3000.00
00553            3400.00
00554            3400.00
00555            3400.00
00556            3400.00
00557            3400.00
00558            3600.00
00559            3400.00
00560            3600.00
00561            3600.00
00562            3600.00
00563            3600.00
00564            3800.00
00565            3800.00
00566            3800.00
00567            4200.00
00568            3800.00
00569            4200.00
00570            4200.00
00571            4200.00
00572            4200.00
00573            4200.00
00574            4200.00
00575            4200.00
00576            4400.00
00577            4200.00
00578            4400.00
00579            4400.00
00580            4400.00
00581            4400.00
00582            4400.00
00583            4600.00
00584            4400.00
00585            4600.00
00586            4600.00
00587            4600.00
00588            4400.00
00589            4400.00
00590            4600.00
00591            4600.00
00592            4600.00
00593            4600.00
00594            4600.00
00595            4600.00
00596            4600.00
00597            4600.00
00598            4600.00
00599            4400.00
00600            4600.00
00601            4600.00
00602            4400.00
00603            4600.00
00604            4400.00
00605            4400.00
00606            4400.00
00607            4400.00
00608            4400.00
00609            4400.00
00610            4400.00
00611            4400.00
00612            4200.00
00613            4200.00
00614            4200.00
00615            4200.00
00616            4200.00
00617            4200.00
00618            4200.00
00619            4200.00
00620            4200.00
00621            4000.00
00622            4000.00
00623            3800.00
00624            3800.00
00625            3800.00
00626            3600.00
00627            3800.00
00628            3600.00
00629            3600.00
00630            3800.00
00631            3400.00
00632            3600.00
00633            3600.00
00634            3400.00
00635            3400.00
00636            3200.00
00637            3400.00
00638            3200.00
00639            3200.00
00640            3000.00
00641            3000.00
00642            2800.00
00643            2800.00
00644            2800.00
00645            2600.00
00646            2600.00
00647            2600.00
00648            2600.00
00649            2600.00
00650            2200.00
00651            2200.00
00652            2200.00
00653            2000.00
00654            2000.00
00655            2000.00
00656            2000.00
00657            2000.00
00658            1800.00
00659            1600.00
00660            1800.00
00661            1400.00
00662            1400.00
00663            1200.00
00664            1200.00
00665            1200.00
00666            1000.00
00667            1000.00
00668            1000.00
00669            1000.00
00670             400.00
00671             600.00
00672             400.00
00673             400.00
00674             200.00
00675             400.00
00676             200.00
00677             200.00
00678               0.00
00679            -200.00
00680            -200.00
00681            -200.00
00682            -400.00
00683            -400.00
00684            -600.00
00685            -600.00
00686            -800.00
00687            -600.00
00688            -600.00
00689           -1000.00
00690           -1000.00
00691           -1000.00
00692           -1200.00
00693           -1200.00
00694           -1200.00
00695           -1400.00
00696           -1400.00
00697           -1400.00
00698           -1800.00
00699           -1800.00
00700           -2000.00
00701           -2000.00
00702           -2200.00
00703           -2000.00
00704           -2200.00
00705           -2200.00
00706           -2200.00
00707           -2200.00
00708           -2600.00
00709           -2600.00
00710           -2600.00
00711           -2600.00
00712           -2800.00
00713           -2800.00
00714           -2800.00
00715           -3000.00
00716           -3000.00
00717           -3000.00
00718           -3000.00
00719           -3000.00
00720           -3400.00
00721           -3000.00
00722           -3400.00
00723           -3400.00
00724           -3400.00
00725           -3600.00
00726           -3600.00
00727           -3600.00
00728           -3600.00
00729           -3800.00
00730           -3800.00
00731           -3800.00
00732           -4000.00
00733           -4200.00
00734           -4000.00
00735           -4200.00
00736           -4000.00
00737           -4200.00
00738           -4200.00
00739           -4200.00
00740           -4400.00
00741           -4400.00
00742           -4400.00
00743           -4400.00
00744           -4400.00
00745           -4400.00
00746           -4400.00
00747           -4400.00
00748           -4600.00
00749           -4400.00
00750           -4600.00
00751           -4400.00
00752           -4400.00
00753           -4600.00
00754           -4400.00
00755           -4600.00
00756           -4600.00
00757           -4600.00
00758           -4600.00
00759           -4600.00
00760           -4600.00
00761           -4400.00
00762           -4600.00
00763           -4600.00
00764           -4600.00
00765           -4400.00
00766           -4400.00
