Unit:(mV)
                     CH1
Frequency    301.136 kHz
00001            2600.00
00002            2000.00
00003            1800.00
00004            1200.00
00005             600.00
00006             400.00
00007            -200.00
00008            -600.00
00009           -1000.00
00010           -1400.00
00011           -1800.00
00012           -2200.00
00013           -2600.00
00014           -3000.00
00015           -3400.00
00016           -3800.00
00017           -4600.00
00018           -5200.00
00019           -5600.00
00020           -5600.00
00021           -6000.00
00022           -6600.00
00023           -7000.00
00024           -7400.00
00025           -7800.00
00026           -8200.00
00027           -8600.00
00028           -9200.00
00029           -9400.00
00030          -10000.00
00031          -10200.00
00032          -10600.00
00033          -11200.00
00034          -11600.00
00035          -11800.00
00036          -12200.00
00037          -12600.00
00038          -13200.00
00039          -13400.00
00040          -14000.00
00041          -14200.00
00042          -14600.00
00043          -15000.00
00044          -15000.00
00045          -15600.00
00046          -15800.00
00047          -16400.00
00048          -16600.00
00049          -17000.00
00050          -17200.00
00051          -17600.00
00052          -18000.00
00053          -18200.00
00054          -18600.00
00055          -18800.00
00056          -19000.00
00057          -19400.00
00058          -19600.00
00059          -19800.00
00060          -20200.00
00061          -20400.00
00062          -20400.00
00063          -20600.00
00064          -21000.00
00065          -21200.00
00066          -21400.00
00067          -21400.00
00068          -21800.00
00069          -22000.00
00070          -22000.00
00071          -22200.00
00072          -22400.00
00073          -22400.00
00074          -23000.00
00075          -22800.00
00076          -22800.00
00077          -23000.00
00078          -23000.00
00079          -23200.00
00080          -23200.00
00081          -23400.00
00082          -23400.00
00083          -23600.00
00084          -23600.00
00085          -23600.00
00086          -23600.00
00087          -23400.00
00088          -23600.00
00089          -23800.00
00090          -23600.00
00091          -23600.00
00092          -23600.00
00093          -23600.00
00094          -23600.00
00095          -23600.00
00096          -23600.00
00097          -23400.00
00098          -23400.00
00099          -23400.00
00100          -23200.00
00101          -23000.00
00102          -23000.00
00103          -22800.00
00104          -22800.00
00105          -22800.00
00106          -22600.00
00107          -22600.00
00108          -22200.00
00109          -22000.00
00110          -22000.00
00111          -21800.00
00112          -21600.00
00113          -21400.00
00114          -21200.00
00115          -21000.00
00116          -21000.00
00117          -20600.00
00118          -20400.00
00119          -20200.00
00120          -19800.00
00121          -19600.00
00122          -19200.00
00123          -19000.00
00124          -18800.00
00125          -18600.00
00126          -18200.00
00127          -18000.00
00128          -17800.00
00129          -17400.00
00130          -17200.00
00131          -16600.00
00132          -16400.00
00133          -16200.00
00134          -15800.00
00135          -15400.00
00136          -15000.00
00137          -14800.00
00138          -14200.00
00139          -14000.00
00140          -13600.00
00141          -13200.00
00142          -13000.00
00143          -12400.00
00144          -12200.00
00145          -11800.00
00146          -11400.00
00147          -11000.00
00148          -10600.00
00149          -10200.00
00150           -9800.00
00151           -9200.00
00152           -9000.00
00153           -8600.00
00154           -8200.00
00155           -7600.00
00156           -7400.00
00157           -6800.00
00158           -6400.00
00159           -6000.00
00160           -5400.00
00161           -5000.00
00162           -4600.00
00163           -4200.00
00164           -3800.00
00165           -3400.00
00166           -2800.00
00167           -2600.00
00168           -2000.00
00169           -1800.00
00170           -1200.00
00171            -600.00
00172            -200.00
00173             200.00
00174             600.00
00175            1000.00
00176            1400.00
00177            2000.00
00178            2200.00
00179            2600.00
00180            3000.00
00181            3600.00
00182            3800.00
00183            4400.00
00184            5200.00
00185            5400.00
00186            5800.00
00187            6000.00
00188            6600.00
00189            7000.00
00190            7400.00
00191            7800.00
00192            8400.00
00193            8600.00
00194            9200.00
00195            9400.00
00196           10000.00
00197           10200.00
00198           10600.00
00199           11000.00
00200           11600.00
00201           11800.00
00202           12200.00
00203           12600.00
00204           13000.00
00205           13400.00
00206           13800.00
00207           14200.00
00208           14600.00
00209           15000.00
00210           15400.00
00211           15600.00
00212           16200.00
00213           16400.00
00214           16600.00
00215           17000.00
00216           17400.00
00217           17800.00
00218           18000.00
00219           18200.00
00220           18600.00
00221           18800.00
00222           19000.00
00223           19400.00
00224           19600.00
00225           19800.00
00226           20000.00
00227           20400.00
00228           20600.00
00229           21000.00
00230           21000.00
00231           21200.00
00232           21200.00
00233           21600.00
00234           21800.00
00235           21800.00
00236           22000.00
00237           22200.00
00238           22200.00
00239           22600.00
00240           22600.00
00241           22800.00
00242           22800.00
00243           23000.00
00244           23000.00
00245           23400.00
00246           23400.00
00247           23400.00
00248           23400.00
00249           23600.00
00250           23600.00
00251           23600.00
00252           23600.00
00253           23600.00
00254           23600.00
00255           23600.00
00256           23600.00
00257           23600.00
00258           23600.00
00259           23600.00
00260           23600.00
00261           23600.00
00262           23400.00
00263           23400.00
00264           23400.00
00265           23400.00
00266           23400.00
00267           23200.00
00268           23000.00
00269           22800.00
00270           22800.00
00271           22800.00
00272           22600.00
00273           22600.00
00274           22200.00
00275           22000.00
00276           22000.00
00277           21800.00
00278           21600.00
00279           21400.00
00280           21200.00
00281           21000.00
00282           21000.00
00283           20400.00
00284           20400.00
00285           20200.00
00286           20000.00
00287           19600.00
00288           19400.00
00289           19200.00
00290           18800.00
00291           18600.00
00292           18200.00
00293           18000.00
00294           17800.00
00295           17400.00
00296           17000.00
00297           16800.00
00298           16400.00
00299           16200.00
00300           15800.00
00301           15400.00
00302           15000.00
00303           14800.00
00304           14400.00
00305           14000.00
00306           13800.00
00307           13400.00
00308           13000.00
00309           12600.00
00310           12200.00
00311           11800.00
00312           11400.00
00313           11000.00
00314           10600.00
00315           10200.00
00316            9800.00
00317            9400.00
00318            9000.00
00319            8400.00
00320            8200.00
00321            7600.00
00322            7400.00
00323            6800.00
00324            6600.00
00325            6000.00
00326            5400.00
00327            5200.00
00328            4600.00
00329            4400.00
00330            3800.00
00331            3600.00
00332            2800.00
00333            2600.00
00334            2000.00
00335            1800.00
00336            1200.00
00337            1000.00
00338             400.00
00339            -200.00
00340            -600.00
00341           -1000.00
00342           -1400.00
00343           -1800.00
00344           -2200.00
00345           -2600.00
00346           -3000.00
00347           -3400.00
00348           -3800.00
00349           -4600.00
00350           -5200.00
00351           -5400.00
00352           -5400.00
00353           -6000.00
00354           -6600.00
00355           -7000.00
00356           -7200.00
00357           -7800.00
00358           -8200.00
00359           -8600.00
00360           -9200.00
00361           -9400.00
00362          -10000.00
00363          -10200.00
00364          -10600.00
00365          -11000.00
00366          -11600.00
00367          -11800.00
00368          -12400.00
00369          -12600.00
00370          -13200.00
00371          -13400.00
00372          -14000.00
00373          -14200.00
00374          -14600.00
00375          -15000.00
00376          -15400.00
00377          -15600.00
00378          -15800.00
00379          -16600.00
00380          -16600.00
00381          -17000.00
00382          -17200.00
00383          -17800.00
00384          -18000.00
00385          -18200.00
00386          -18600.00
00387          -18800.00
00388          -19000.00
00389          -19400.00
00390          -19600.00
00391          -19800.00
00392          -20200.00
00393          -20200.00
00394          -20400.00
00395          -20600.00
00396          -21000.00
00397          -21200.00
00398          -21400.00
00399          -21400.00
00400          -21600.00
00401          -21800.00
00402          -22000.00
00403          -22000.00
00404          -22200.00
00405          -22600.00
00406          -22600.00
00407          -22600.00
00408          -22800.00
00409          -23000.00
00410          -23000.00
00411          -23000.00
00412          -23000.00
00413          -23400.00
00414          -23400.00
00415          -23600.00
00416          -23600.00
00417          -23600.00
00418          -23600.00
00419          -23600.00
00420          -23600.00
00421          -23600.00
00422          -23600.00
00423          -23600.00
00424          -23600.00
00425          -23600.00
00426          -23600.00
00427          -23600.00
00428          -23600.00
00429          -23600.00
00430          -23600.00
00431          -23200.00
00432          -23400.00
00433          -23000.00
00434          -23000.00
00435          -23000.00
00436          -22800.00
00437          -22600.00
00438          -22600.00
00439          -22200.00
00440          -22200.00
00441          -22200.00
00442          -22000.00
00443          -21800.00
00444          -21800.00
00445          -21400.00
00446          -21400.00
00447          -21200.00
00448          -21000.00
00449          -20600.00
00450          -20400.00
00451          -20200.00
00452          -19800.00
00453          -19600.00
00454          -19400.00
00455          -19000.00
00456          -18800.00
00457          -18600.00
00458          -18200.00
00459          -18000.00
00460          -17800.00
00461          -17400.00
00462          -17000.00
00463          -17000.00
00464          -16400.00
00465          -16200.00
00466          -15600.00
00467          -15600.00
00468          -15000.00
00469          -14800.00
00470          -14200.00
00471          -14000.00
00472          -13800.00
00473          -13400.00
00474          -13000.00
00475          -12400.00
00476          -12200.00
00477          -11800.00
00478          -11400.00
00479          -11000.00
00480          -10600.00
00481          -10000.00
00482           -9800.00
00483           -9200.00
00484           -9000.00
00485           -8600.00
00486           -8200.00
00487           -7600.00
00488           -7400.00
00489           -6800.00
00490           -6200.00
00491           -6000.00
00492           -5600.00
00493           -5200.00
00494           -4600.00
00495           -4400.00
00496           -3800.00
00497           -3600.00
00498           -3000.00
00499           -2800.00
00500           -2000.00
00501           -1800.00
00502           -1200.00
00503            -600.00
00504            -400.00
00505             200.00
00506             400.00
00507            1000.00
00508            1400.00
00509            1800.00
00510            2200.00
00511            2600.00
00512            3000.00
00513            3400.00
00514            4000.00
00515            4400.00
00516            5000.00
00517            5400.00
00518            5800.00
00519            6000.00
00520            6600.00
00521            6800.00
00522            7400.00
00523            7800.00
00524            8200.00
00525            8600.00
00526            9000.00
00527            9200.00
00528            9800.00
00529           10200.00
00530           10600.00
00531           11000.00
00532           11600.00
00533           11600.00
00534           12200.00
00535           12600.00
00536           13000.00
00537           13400.00
00538           13800.00
00539           14000.00
00540           14600.00
00541           14800.00
00542           15400.00
00543           15400.00
00544           15800.00
00545           16400.00
00546           16600.00
00547           17000.00
00548           17200.00
00549           17400.00
00550           17800.00
00551           18000.00
00552           18600.00
00553           18600.00
00554           19000.00
00555           19400.00
00556           19400.00
00557           19800.00
00558           19800.00
00559           20200.00
00560           20400.00
00561           20600.00
00562           21000.00
00563           21200.00
00564           21200.00
00565           21400.00
00566           21800.00
00567           21800.00
00568           21800.00
00569           22200.00
00570           22200.00
00571           22400.00
00572           22600.00
00573           22600.00
00574           22800.00
00575           23000.00
00576           23000.00
00577           23000.00
00578           23400.00
00579           23400.00
00580           23400.00
00581           23400.00
00582           23600.00
00583           23600.00
00584           23600.00
00585           23600.00
00586           23600.00
00587           23600.00
00588           23800.00
00589           23600.00
00590           23600.00
00591           23600.00
00592           23400.00
00593           23600.00
00594           23400.00
00595           23400.00
00596           23400.00
00597           23400.00
00598           23400.00
00599           23000.00
00600           23000.00
00601           22800.00
00602           22800.00
00603           22800.00
00604           22600.00
00605           22600.00
00606           22200.00
00607           22200.00
00608           22000.00
00609           21800.00
00610           21400.00
00611           21400.00
00612           21200.00
00613           21000.00
00614           21000.00
00615           20600.00
00616           20400.00
00617           20200.00
00618           19800.00
00619           19600.00
00620           19600.00
00621           19400.00
00622           18800.00
00623           18600.00
00624           18200.00
00625           18000.00
00626           17800.00
00627           17200.00
00628           17000.00
00629           16800.00
00630           16400.00
00631           16200.00
00632           15600.00
00633           15400.00
00634           15000.00
00635           14800.00
00636           14600.00
00637           14200.00
00638           13800.00
00639           13200.00
00640           13000.00
00641           12600.00
00642           12200.00
00643           11800.00
00644           11600.00
00645           11000.00
00646           10600.00
00647           10200.00
00648           10000.00
00649            9400.00
00650            9000.00
00651            8600.00
00652            8200.00
00653            7800.00
00654            7400.00
00655            6800.00
00656            6600.00
00657            6000.00
00658            5400.00
00659            5200.00
00660            4600.00
00661            4200.00
00662            3800.00
00663            3400.00
00664            3000.00
00665            2600.00
00666            2200.00
00667            1800.00
00668            1400.00
00669             600.00
00670             400.00
00671             200.00
00672            -600.00
00673           -1000.00
00674           -1200.00
00675           -1800.00
00676           -2200.00
00677           -2600.00
00678           -2800.00
00679           -3200.00
00680           -3800.00
00681           -4600.00
00682           -5200.00
00683           -5400.00
00684           -5800.00
00685           -5800.00
00686           -6400.00
00687           -7000.00
00688           -7400.00
00689           -7800.00
00690           -8400.00
00691           -8600.00
00692           -9200.00
00693           -9400.00
00694          -10000.00
00695          -10200.00
00696          -10600.00
00697          -11000.00
00698          -11600.00
00699          -11800.00
00700          -12200.00
00701          -12600.00
00702          -13200.00
00703          -13400.00
00704          -13800.00
00705          -14200.00
00706          -14600.00
00707          -15000.00
00708          -15400.00
00709          -15600.00
00710          -16000.00
00711          -16200.00
00712          -16600.00
00713          -17000.00
00714          -17200.00
00715          -17600.00
00716          -17800.00
00717          -18200.00
00718          -18400.00
00719          -18800.00
00720          -19000.00
00721          -19200.00
00722          -19600.00
00723          -19800.00
00724          -20200.00
00725          -20200.00
00726          -20400.00
00727          -20800.00
00728          -21000.00
00729          -21200.00
00730          -21400.00
00731          -21400.00
00732          -21800.00
00733          -21800.00
00734          -22000.00
00735          -22200.00
00736          -22200.00
00737          -22600.00
00738          -22600.00
00739          -22800.00
00740          -22800.00
00741          -23000.00
00742          -23000.00
00743          -23200.00
00744          -23400.00
00745          -23400.00
00746          -23400.00
00747          -23600.00
00748          -23600.00
00749          -23600.00
00750          -23600.00
00751          -23600.00
00752          -23600.00
00753          -23600.00
00754          -23600.00
00755          -23600.00
00756          -23800.00
00757          -23600.00
00758          -23600.00
00759          -23600.00
00760          -23600.00
00761          -23600.00
00762          -23400.00
00763          -23400.00
00764          -23400.00
00765          -23000.00
00766          -23000.00
