Unit:(mV)
                     CH2
Frequency    302.028 kHz
00001            1800.00
00002            1600.00
00003            1600.00
00004            1400.00
00005            1400.00
00006            1200.00
00007            1000.00
00008            1000.00
00009             800.00
00010             600.00
00011             600.00
00012             400.00
00013             400.00
00014             200.00
00015               0.00
00016               0.00
00017            -200.00
00018            -200.00
00019            -400.00
00020            -400.00
00021            -600.00
00022            -800.00
00023           -1000.00
00024           -1000.00
00025           -1600.00
00026           -1200.00
00027           -1200.00
00028           -1600.00
00029           -1800.00
00030           -1800.00
00031           -1800.00
00032           -2000.00
00033           -2000.00
00034           -2200.00
00035           -2200.00
00036           -2400.00
00037           -2800.00
00038           -2800.00
00039           -2600.00
00040           -3200.00
00041           -3200.00
00042           -3000.00
00043           -3400.00
00044           -3400.00
00045           -3400.00
00046           -3600.00
00047           -3600.00
00048           -3600.00
00049           -4000.00
00050           -4000.00
00051           -4000.00
00052           -4200.00
00053           -4400.00
00054           -4400.00
00055           -4400.00
00056           -4400.00
00057           -4600.00
00058           -4800.00
00059           -4800.00
00060           -4600.00
00061           -4800.00
00062           -5000.00
00063           -5000.00
00064           -5000.00
00065           -5200.00
00066           -5400.00
00067           -5600.00
00068           -5600.00
00069           -5600.00
00070           -5600.00
00071           -5600.00
00072           -5800.00
00073           -5800.00
00074           -5800.00
00075           -5600.00
00076           -6000.00
00077           -6000.00
00078           -6000.00
00079           -6200.00
00080           -6200.00
00081           -6000.00
00082           -6200.00
00083           -6200.00
00084           -6000.00
00085           -6200.00
00086           -6200.00
00087           -6200.00
00088           -6400.00
00089           -6400.00
00090           -6400.00
00091           -6400.00
00092           -6400.00
00093           -6400.00
00094           -6400.00
00095           -6400.00
00096           -6600.00
00097           -6400.00
00098           -6400.00
00099           -6400.00
00100           -6600.00
00101           -6400.00
00102           -6400.00
00103           -6400.00
00104           -6400.00
00105           -6400.00
00106           -6400.00
00107           -6400.00
00108           -6400.00
00109           -6400.00
00110           -6200.00
00111           -6200.00
00112           -6200.00
00113           -6200.00
00114           -6200.00
00115           -6000.00
00116           -6000.00
00117           -6000.00
00118           -6000.00
00119           -6000.00
00120           -5800.00
00121           -6000.00
00122           -5600.00
00123           -5800.00
00124           -5600.00
00125           -5600.00
00126           -5600.00
00127           -5600.00
00128           -5200.00
00129           -5200.00
00130           -5200.00
00131           -5000.00
00132           -5000.00
00133           -5200.00
00134           -5000.00
00135           -4600.00
00136           -4800.00
00137           -4600.00
00138           -4600.00
00139           -4400.00
00140           -4400.00
00141           -4200.00
00142           -4200.00
00143           -4200.00
00144           -4000.00
00145           -4000.00
00146           -4000.00
00147           -3600.00
00148           -3600.00
00149           -3600.00
00150           -3400.00
00151           -3200.00
00152           -3400.00
00153           -3200.00
00154           -3200.00
00155           -2800.00
00156           -3000.00
00157           -2800.00
00158           -2800.00
00159           -2600.00
00160           -2400.00
00161           -2400.00
00162           -2400.00
00163           -2000.00
00164           -2000.00
00165           -1800.00
00166           -1800.00
00167           -1600.00
00168           -1600.00
00169           -1200.00
00170           -1400.00
00171           -1000.00
00172           -1000.00
00173            -800.00
00174            -800.00
00175            -800.00
00176            -400.00
00177            -400.00
00178            -200.00
00179            -200.00
00180               0.00
00181             200.00
00182             200.00
00183             400.00
00184             600.00
00185             600.00
00186             600.00
00187             800.00
00188             800.00
00189            1200.00
00190            1400.00
00191            1400.00
00192            1400.00
00193            1400.00
00194            1800.00
00195            2000.00
00196            2000.00
00197            2000.00
00198            2200.00
00199            2200.00
00200            2400.00
00201            2400.00
00202            2600.00
00203            2600.00
00204            2800.00
00205            3000.00
00206            3000.00
00207            3000.00
00208            3200.00
00209            3400.00
00210            3600.00
00211            3600.00
00212            3600.00
00213            3800.00
00214            4000.00
00215            4000.00
00216            4000.00
00217            4200.00
00218            4200.00
00219            4400.00
00220            4400.00
00221            4600.00
00222            4600.00
00223            4600.00
00224            4800.00
00225            4800.00
00226            4800.00
00227            5200.00
00228            5200.00
00229            5400.00
00230            5400.00
00231            5400.00
00232            5600.00
00233            5400.00
00234            5600.00
00235            5600.00
00236            5600.00
00237            5800.00
00238            5800.00
00239            6000.00
00240            6000.00
00241            6000.00
00242            6200.00
00243            6000.00
00244            6000.00
00245            6200.00
00246            6400.00
00247            6200.00
00248            6200.00
00249            6400.00
00250            6400.00
00251            6400.00
00252            6400.00
00253            6400.00
00254            6400.00
00255            6400.00
00256            6400.00
00257            6600.00
00258            6400.00
00259            6400.00
00260            6600.00
00261            6400.00
00262            6600.00
00263            6600.00
00264            6600.00
00265            6600.00
00266            6400.00
00267            6400.00
00268            6400.00
00269            6400.00
00270            6600.00
00271            6400.00
00272            6400.00
00273            6400.00
00274            6400.00
00275            6400.00
00276            6400.00
00277            6200.00
00278            6200.00
00279            6200.00
00280            6400.00
00281            6200.00
00282            6200.00
00283            6000.00
00284            6000.00
00285            6000.00
00286            6000.00
00287            5800.00
00288            6000.00
00289            5800.00
00290            5600.00
00291            5600.00
00292            5600.00
00293            5600.00
00294            5600.00
00295            5400.00
00296            5400.00
00297            5200.00
00298            5200.00
00299            5000.00
00300            5000.00
00301            4800.00
00302            4800.00
00303            4600.00
00304            4800.00
00305            4600.00
00306            4600.00
00307            4400.00
00308            4200.00
00309            4200.00
00310            4200.00
00311            4000.00
00312            4000.00
00313            3800.00
00314            3600.00
00315            3600.00
00316            3600.00
00317            3400.00
00318            3200.00
00319            3200.00
00320            3000.00
00321            3000.00
00322            2800.00
00323            2800.00
00324            2800.00
00325            2400.00
00326            2400.00
00327            2400.00
00328            2200.00
00329            2200.00
00330            2000.00
00331            1800.00
00332            1800.00
00333            1600.00
00334            1400.00
00335            1400.00
00336            1200.00
00337            1200.00
00338            1000.00
00339             800.00
00340             600.00
00341             600.00
00342             400.00
00343             400.00
00344             400.00
00345               0.00
00346               0.00
00347               0.00
00348               0.00
00349            -200.00
00350            -400.00
00351            -400.00
00352            -800.00
00353            -800.00
00354            -800.00
00355           -1000.00
00356           -1600.00
00357           -1400.00
00358           -1400.00
00359           -1600.00
00360           -1800.00
00361           -1800.00
00362           -1800.00
00363           -1800.00
00364           -2200.00
00365           -2400.00
00366           -2400.00
00367           -2400.00
00368           -2600.00
00369           -2800.00
00370           -2800.00
00371           -3000.00
00372           -3000.00
00373           -3200.00
00374           -3200.00
00375           -3400.00
00376           -3400.00
00377           -3600.00
00378           -3600.00
00379           -3600.00
00380           -3800.00
00381           -4000.00
00382           -4000.00
00383           -4200.00
00384           -4400.00
00385           -4400.00
00386           -4400.00
00387           -4400.00
00388           -4600.00
00389           -4600.00
00390           -4800.00
00391           -4800.00
00392           -5000.00
00393           -4800.00
00394           -5200.00
00395           -5000.00
00396           -5200.00
00397           -5200.00
00398           -5400.00
00399           -5400.00
00400           -5600.00
00401           -5600.00
00402           -5600.00
00403           -5600.00
00404           -5800.00
00405           -5800.00
00406           -5800.00
00407           -5800.00
00408           -6000.00
00409           -6000.00
00410           -6000.00
00411           -6200.00
00412           -6000.00
00413           -6000.00
00414           -6200.00
00415           -6200.00
00416           -6400.00
00417           -6200.00
00418           -6400.00
00419           -6400.00
00420           -6400.00
00421           -6400.00
00422           -6400.00
00423           -6400.00
00424           -6400.00
00425           -6600.00
00426           -6400.00
00427           -6400.00
00428           -6600.00
00429           -6400.00
00430           -6600.00
00431           -6400.00
00432           -6400.00
00433           -6600.00
00434           -6400.00
00435           -6400.00
00436           -6400.00
00437           -6400.00
00438           -6400.00
00439           -6400.00
00440           -6400.00
00441           -6400.00
00442           -6200.00
00443           -6200.00
00444           -6000.00
00445           -6000.00
00446           -6200.00
00447           -6000.00
00448           -6000.00
00449           -6000.00
00450           -6000.00
00451           -5800.00
00452           -5800.00
00453           -5800.00
00454           -5800.00
00455           -5600.00
00456           -5600.00
00457           -5600.00
00458           -5600.00
00459           -5600.00
00460           -5400.00
00461           -5200.00
00462           -5200.00
00463           -5000.00
00464           -5000.00
00465           -5000.00
00466           -4800.00
00467           -4600.00
00468           -4600.00
00469           -4600.00
00470           -4400.00
00471           -4400.00
00472           -4400.00
00473           -4400.00
00474           -4200.00
00475           -4000.00
00476           -4000.00
00477           -4000.00
00478           -3800.00
00479           -3600.00
00480           -3600.00
00481           -3600.00
00482           -3400.00
00483           -3400.00
00484           -3200.00
00485           -3000.00
00486           -3000.00
00487           -2800.00
00488           -2600.00
00489           -2600.00
00490           -2400.00
00491           -2400.00
00492           -2400.00
00493           -2200.00
00494           -2000.00
00495           -2000.00
00496           -1800.00
00497           -1800.00
00498           -1600.00
00499           -1600.00
00500           -1600.00
00501           -1200.00
00502           -1000.00
00503            -800.00
00504           -1000.00
00505            -800.00
00506            -800.00
00507            -400.00
00508            -400.00
00509            -200.00
00510            -200.00
00511               0.00
00512               0.00
00513             400.00
00514             400.00
00515             400.00
00516             600.00
00517             400.00
00518             800.00
00519             800.00
00520            1000.00
00521            1200.00
00522            1200.00
00523            1400.00
00524            1400.00
00525            1800.00
00526            1800.00
00527            1800.00
00528            2000.00
00529            2200.00
00530            2000.00
00531            2200.00
00532            2400.00
00533            2600.00
00534            2800.00
00535            2800.00
00536            3000.00
00537            3000.00
00538            3200.00
00539            3200.00
00540            3200.00
00541            3400.00
00542            3600.00
00543            3800.00
00544            3800.00
00545            3800.00
00546            3800.00
00547            4000.00
00548            4200.00
00549            4400.00
00550            4200.00
00551            4400.00
00552            4600.00
00553            4600.00
00554            4800.00
00555            4800.00
00556            4800.00
00557            5000.00
00558            5000.00
00559            5200.00
00560            5200.00
00561            5400.00
00562            5400.00
00563            5400.00
00564            5600.00
00565            5600.00
00566            5600.00
00567            5600.00
00568            5800.00
00569            6000.00
00570            6000.00
00571            6000.00
00572            6000.00
00573            6000.00
00574            6200.00
00575            6200.00
00576            6200.00
00577            6200.00
00578            6200.00
00579            6400.00
00580            6400.00
00581            6400.00
00582            6400.00
00583            6400.00
00584            6400.00
00585            6400.00
00586            6400.00
00587            6600.00
00588            6600.00
00589            6600.00
00590            6600.00
00591            6400.00
00592            6400.00
00593            6600.00
00594            6600.00
00595            6600.00
00596            6400.00
00597            6400.00
00598            6600.00
00599            6400.00
00600            6400.00
00601            6400.00
00602            6400.00
00603            6400.00
00604            6400.00
00605            6400.00
00606            6400.00
00607            6400.00
00608            6400.00
00609            6400.00
00610            6200.00
00611            6200.00
00612            6200.00
00613            6200.00
00614            6000.00
00615            6200.00
00616            6000.00
00617            6000.00
00618            6000.00
00619            6000.00
00620            5800.00
00621            5800.00
00622            5600.00
00623            5600.00
00624            5600.00
00625            5600.00
00626            5400.00
00627            5400.00
00628            5200.00
00629            5400.00
00630            5000.00
00631            5000.00
00632            4800.00
00633            4800.00
00634            4800.00
00635            4600.00
00636            4600.00
00637            4400.00
00638            4400.00
00639            4400.00
00640            4200.00
00641            4000.00
00642            4000.00
00643            4000.00
00644            3800.00
00645            3800.00
00646            3600.00
00647            3600.00
00648            3400.00
00649            3200.00
00650            3200.00
00651            3200.00
00652            3000.00
00653            3000.00
00654            2800.00
00655            2600.00
00656            2400.00
00657            2400.00
00658            2400.00
00659            2200.00
00660            2000.00
00661            2000.00
00662            2000.00
00663            1600.00
00664            1800.00
00665            1600.00
00666            1400.00
00667            1400.00
00668            1200.00
00669            1000.00
00670             800.00
00671             800.00
00672             600.00
00673             600.00
00674             400.00
00675             400.00
00676               0.00
00677               0.00
00678               0.00
00679            -200.00
00680            -400.00
00681            -200.00
00682            -400.00
00683            -600.00
00684            -800.00
00685            -800.00
00686           -1000.00
00687           -1400.00
00688           -1400.00
00689           -1200.00
00690           -1200.00
00691           -1600.00
00692           -1800.00
00693           -1800.00
00694           -2000.00
00695           -2400.00
00696           -2400.00
00697           -2200.00
00698           -2400.00
00699           -2600.00
00700           -2600.00
00701           -2600.00
00702           -2800.00
00703           -3200.00
00704           -3000.00
00705           -3200.00
00706           -3400.00
00707           -3400.00
00708           -3400.00
00709           -3600.00
00710           -3600.00
00711           -4000.00
00712           -4000.00
00713           -4000.00
00714           -4000.00
00715           -4200.00
00716           -4200.00
00717           -4400.00
00718           -4400.00
00719           -4600.00
00720           -4600.00
00721           -4800.00
00722           -4800.00
00723           -5000.00
00724           -5000.00
00725           -5200.00
00726           -5200.00
00727           -5200.00
00728           -5200.00
00729           -5400.00
00730           -5600.00
00731           -5600.00
00732           -5600.00
00733           -5600.00
00734           -5800.00
00735           -5800.00
00736           -5800.00
00737           -5800.00
00738           -5800.00
00739           -6000.00
00740           -6000.00
00741           -6000.00
00742           -6000.00
00743           -6200.00
00744           -6000.00
00745           -6000.00
00746           -6200.00
00747           -6400.00
00748           -6400.00
00749           -6400.00
00750           -6400.00
00751           -6400.00
00752           -6400.00
00753           -6600.00
00754           -6400.00
00755           -6400.00
00756           -6400.00
00757           -6400.00
00758           -6400.00
00759           -6400.00
00760           -6400.00
00761           -6400.00
00762           -6400.00
00763           -6400.00
00764           -6600.00
00765           -6400.00
00766           -6600.00
