Unit:(mV)
                     CH2
Frequency    302.526 kHz
00001            1600.00
00002            1600.00
00003            1600.00
00004            1400.00
00005            1400.00
00006            1400.00
00007            1200.00
00008            1200.00
00009            1000.00
00010            1000.00
00011             800.00
00012             800.00
00013             800.00
00014             600.00
00015             600.00
00016             400.00
00017             200.00
00018             200.00
00019               0.00
00020               0.00
00021               0.00
00022            -200.00
00023            -200.00
00024            -200.00
00025            -400.00
00026            -400.00
00027            -400.00
00028            -800.00
00029            -800.00
00030            -600.00
00031            -800.00
00032           -1000.00
00033           -1000.00
00034           -1000.00
00035           -1000.00
00036           -1200.00
00037           -1200.00
00038           -1200.00
00039           -1600.00
00040           -1600.00
00041           -1600.00
00042           -1800.00
00043           -1800.00
00044           -2000.00
00045           -2000.00
00046           -2200.00
00047           -2200.00
00048           -2400.00
00049           -2200.00
00050           -2400.00
00051           -2400.00
00052           -2400.00
00053           -2600.00
00054           -2600.00
00055           -2800.00
00056           -2800.00
00057           -2800.00
00058           -2800.00
00059           -3000.00
00060           -3000.00
00061           -3200.00
00062           -3200.00
00063           -3400.00
00064           -3200.00
00065           -3400.00
00066           -3200.00
00067           -3400.00
00068           -3400.00
00069           -3400.00
00070           -3600.00
00071           -3600.00
00072           -3600.00
00073           -3600.00
00074           -3800.00
00075           -3600.00
00076           -3800.00
00077           -3800.00
00078           -4000.00
00079           -4000.00
00080           -4000.00
00081           -4000.00
00082           -4200.00
00083           -4000.00
00084           -4200.00
00085           -4200.00
00086           -4200.00
00087           -4200.00
00088           -4200.00
00089           -4400.00
00090           -4200.00
00091           -4400.00
00092           -4400.00
00093           -4400.00
00094           -4200.00
00095           -4400.00
00096           -4400.00
00097           -4400.00
00098           -4400.00
00099           -4400.00
00100           -4400.00
00101           -4200.00
00102           -4400.00
00103           -4400.00
00104           -4400.00
00105           -4400.00
00106           -4400.00
00107           -4400.00
00108           -4400.00
00109           -4400.00
00110           -4400.00
00111           -4400.00
00112           -4200.00
00113           -4400.00
00114           -4200.00
00115           -4400.00
00116           -4200.00
00117           -4200.00
00118           -4000.00
00119           -4200.00
00120           -4200.00
00121           -4000.00
00122           -4200.00
00123           -4000.00
00124           -4000.00
00125           -4000.00
00126           -4000.00
00127           -4000.00
00128           -3800.00
00129           -4000.00
00130           -4000.00
00131           -4000.00
00132           -3800.00
00133           -3600.00
00134           -3600.00
00135           -3600.00
00136           -3600.00
00137           -3400.00
00138           -3400.00
00139           -3400.00
00140           -3200.00
00141           -3200.00
00142           -3200.00
00143           -3200.00
00144           -3200.00
00145           -2800.00
00146           -3200.00
00147           -2800.00
00148           -2800.00
00149           -2800.00
00150           -2800.00
00151           -2600.00
00152           -2600.00
00153           -2400.00
00154           -2400.00
00155           -2400.00
00156           -2200.00
00157           -2200.00
00158           -2000.00
00159           -2000.00
00160           -2000.00
00161           -2000.00
00162           -1800.00
00163           -1600.00
00164           -1800.00
00165           -1600.00
00166           -1600.00
00167           -1600.00
00168           -1400.00
00169           -1600.00
00170           -1000.00
00171           -1200.00
00172           -1000.00
00173           -1000.00
00174            -800.00
00175            -800.00
00176            -800.00
00177            -800.00
00178            -600.00
00179            -400.00
00180            -400.00
00181            -200.00
00182            -200.00
00183               0.00
00184            -200.00
00185               0.00
00186               0.00
00187             200.00
00188             200.00
00189             400.00
00190             400.00
00191             600.00
00192             600.00
00193             600.00
00194             800.00
00195             800.00
00196             800.00
00197            1000.00
00198            1200.00
00199            1000.00
00200            1200.00
00201            1400.00
00202            1400.00
00203            1400.00
00204            1600.00
00205            1800.00
00206            1800.00
00207            2000.00
00208            2000.00
00209            2000.00
00210            2000.00
00211            2200.00
00212            2200.00
00213            2400.00
00214            2400.00
00215            2400.00
00216            2400.00
00217            2600.00
00218            2600.00
00219            2800.00
00220            2800.00
00221            2800.00
00222            3000.00
00223            3000.00
00224            3000.00
00225            3000.00
00226            3200.00
00227            3200.00
00228            3200.00
00229            3200.00
00230            3400.00
00231            3600.00
00232            3600.00
00233            3600.00
00234            3600.00
00235            3600.00
00236            3800.00
00237            3800.00
00238            4000.00
00239            3800.00
00240            4000.00
00241            4000.00
00242            4000.00
00243            4000.00
00244            4000.00
00245            4200.00
00246            4000.00
00247            4400.00
00248            4000.00
00249            4200.00
00250            4400.00
00251            4200.00
00252            4400.00
00253            4400.00
00254            4400.00
00255            4400.00
00256            4600.00
00257            4400.00
00258            4600.00
00259            4600.00
00260            4600.00
00261            4600.00
00262            4400.00
00263            4400.00
00264            4600.00
00265            4400.00
00266            4600.00
00267            4600.00
00268            4400.00
00269            4600.00
00270            4600.00
00271            4600.00
00272            4400.00
00273            4600.00
00274            4600.00
00275            4600.00
00276            4400.00
00277            4400.00
00278            4600.00
00279            4400.00
00280            4400.00
00281            4400.00
00282            4400.00
00283            4400.00
00284            4400.00
00285            4400.00
00286            4200.00
00287            4400.00
00288            4200.00
00289            4000.00
00290            4200.00
00291            4000.00
00292            4000.00
00293            4000.00
00294            4000.00
00295            3800.00
00296            4000.00
00297            3800.00
00298            3800.00
00299            3600.00
00300            3800.00
00301            3800.00
00302            3600.00
00303            3800.00
00304            3600.00
00305            3600.00
00306            3200.00
00307            3400.00
00308            3400.00
00309            3200.00
00310            3200.00
00311            3200.00
00312            3000.00
00313            3000.00
00314            3000.00
00315            2800.00
00316            2800.00
00317            2800.00
00318            2800.00
00319            2600.00
00320            2600.00
00321            2400.00
00322            2400.00
00323            2400.00
00324            2200.00
00325            2200.00
00326            2000.00
00327            2000.00
00328            2000.00
00329            2000.00
00330            1600.00
00331            1800.00
00332            1600.00
00333            1400.00
00334            1400.00
00335            1400.00
00336            1200.00
00337            1200.00
00338            1200.00
00339            1000.00
00340             800.00
00341             800.00
00342             600.00
00343             800.00
00344             600.00
00345             600.00
00346             400.00
00347             400.00
00348             200.00
00349             200.00
00350             200.00
00351               0.00
00352            -200.00
00353            -200.00
00354            -200.00
00355            -200.00
00356            -400.00
00357            -400.00
00358            -600.00
00359            -800.00
00360            -800.00
00361            -800.00
00362            -800.00
00363           -1000.00
00364           -1000.00
00365           -1000.00
00366           -1200.00
00367           -1200.00
00368           -1200.00
00369           -1400.00
00370           -1600.00
00371           -1600.00
00372           -1800.00
00373           -1800.00
00374           -1800.00
00375           -1800.00
00376           -2000.00
00377           -2000.00
00378           -2000.00
00379           -2200.00
00380           -2400.00
00381           -2400.00
00382           -2600.00
00383           -2400.00
00384           -2600.00
00385           -2600.00
00386           -2800.00
00387           -2800.00
00388           -2800.00
00389           -3000.00
00390           -2800.00
00391           -3200.00
00392           -3000.00
00393           -3200.00
00394           -3400.00
00395           -3400.00
00396           -3400.00
00397           -3400.00
00398           -3600.00
00399           -3400.00
00400           -3400.00
00401           -3600.00
00402           -3600.00
00403           -3600.00
00404           -3600.00
00405           -3800.00
00406           -3800.00
00407           -4000.00
00408           -3800.00
00409           -4000.00
00410           -4000.00
00411           -4000.00
00412           -4000.00
00413           -4000.00
00414           -4200.00
00415           -4000.00
00416           -4200.00
00417           -4200.00
00418           -4200.00
00419           -4200.00
00420           -4200.00
00421           -4200.00
00422           -4200.00
00423           -4200.00
00424           -4200.00
00425           -4400.00
00426           -4400.00
00427           -4400.00
00428           -4400.00
00429           -4400.00
00430           -4400.00
00431           -4400.00
00432           -4400.00
00433           -4400.00
00434           -4400.00
00435           -4400.00
00436           -4400.00
00437           -4400.00
00438           -4400.00
00439           -4400.00
00440           -4400.00
00441           -4400.00
00442           -4400.00
00443           -4400.00
00444           -4200.00
00445           -4400.00
00446           -4400.00
00447           -4400.00
00448           -4200.00
00449           -4200.00
00450           -4200.00
00451           -4200.00
00452           -4200.00
00453           -4200.00
00454           -4000.00
00455           -4000.00
00456           -4000.00
00457           -4000.00
00458           -4000.00
00459           -4000.00
00460           -4000.00
00461           -4000.00
00462           -3800.00
00463           -3600.00
00464           -3600.00
00465           -3600.00
00466           -3600.00
00467           -3600.00
00468           -3400.00
00469           -3400.00
00470           -3400.00
00471           -3400.00
00472           -3400.00
00473           -3000.00
00474           -3200.00
00475           -3000.00
00476           -3000.00
00477           -3000.00
00478           -2800.00
00479           -2800.00
00480           -2800.00
00481           -2600.00
00482           -2800.00
00483           -2600.00
00484           -2400.00
00485           -2400.00
00486           -2400.00
00487           -2400.00
00488           -2200.00
00489           -2000.00
00490           -2000.00
00491           -2000.00
00492           -2000.00
00493           -1800.00
00494           -1800.00
00495           -1600.00
00496           -1600.00
00497           -1600.00
00498           -1600.00
00499           -1400.00
00500           -1200.00
00501           -1200.00
00502           -1200.00
00503           -1000.00
00504           -1000.00
00505            -800.00
00506            -800.00
00507            -600.00
00508            -600.00
00509            -600.00
00510            -400.00
00511            -400.00
00512            -400.00
00513            -200.00
00514            -200.00
00515               0.00
00516               0.00
00517               0.00
00518             200.00
00519             400.00
00520             400.00
00521             400.00
00522             600.00
00523             600.00
00524             800.00
00525             800.00
00526             800.00
00527            1000.00
00528            1200.00
00529            1200.00
00530            1400.00
00531            1400.00
00532            1400.00
00533            1400.00
00534            1600.00
00535            1800.00
00536            1600.00
00537            1800.00
00538            2000.00
00539            2000.00
00540            2200.00
00541            2000.00
00542            2200.00
00543            2400.00
00544            2400.00
00545            2400.00
00546            2400.00
00547            2600.00
00548            2600.00
00549            2800.00
00550            2800.00
00551            2800.00
00552            2800.00
00553            3000.00
00554            3000.00
00555            3000.00
00556            3200.00
00557            3200.00
00558            3400.00
00559            3200.00
00560            3400.00
00561            3600.00
00562            3600.00
00563            3400.00
00564            3600.00
00565            3600.00
00566            3800.00
00567            3800.00
00568            3800.00
00569            3800.00
00570            3800.00
00571            4000.00
00572            4000.00
00573            4000.00
00574            4000.00
00575            4000.00
00576            4200.00
00577            4200.00
00578            4200.00
00579            4000.00
00580            4400.00
00581            4000.00
00582            4400.00
00583            4400.00
00584            4400.00
00585            4400.00
00586            4400.00
00587            4400.00
00588            4400.00
00589            4600.00
00590            4600.00
00591            4600.00
00592            4400.00
00593            4600.00
00594            4400.00
00595            4400.00
00596            4600.00
00597            4600.00
00598            4600.00
00599            4600.00
00600            4600.00
00601            4400.00
00602            4600.00
00603            4600.00
00604            4600.00
00605            4600.00
00606            4400.00
00607            4400.00
00608            4400.00
00609            4400.00
00610            4400.00
00611            4400.00
00612            4400.00
00613            4400.00
00614            4400.00
00615            4200.00
00616            4200.00
00617            4400.00
00618            4400.00
00619            4200.00
00620            4200.00
00621            4000.00
00622            4000.00
00623            4000.00
00624            4000.00
00625            4000.00
00626            4000.00
00627            3800.00
00628            4000.00
00629            3800.00
00630            3600.00
00631            3800.00
00632            3600.00
00633            3800.00
00634            3600.00
00635            3600.00
00636            3400.00
00637            3400.00
00638            3400.00
00639            3200.00
00640            3200.00
00641            3200.00
00642            3000.00
00643            3000.00
00644            3000.00
00645            3000.00
00646            2800.00
00647            2800.00
00648            2800.00
00649            2600.00
00650            2600.00
00651            2400.00
00652            2600.00
00653            2200.00
00654            2400.00
00655            2200.00
00656            2000.00
00657            2000.00
00658            2000.00
00659            2000.00
00660            1800.00
00661            1600.00
00662            1800.00
00663            1800.00
00664            1400.00
00665            1600.00
00666            1200.00
00667            1400.00
00668            1200.00
00669            1200.00
00670            1000.00
00671            1000.00
00672             800.00
00673             600.00
00674             600.00
00675             600.00
00676             400.00
00677             400.00
00678             400.00
00679             200.00
00680               0.00
00681               0.00
00682               0.00
00683               0.00
00684            -200.00
00685            -200.00
00686            -200.00
00687            -400.00
00688            -400.00
00689            -400.00
00690            -600.00
00691            -800.00
00692            -800.00
00693           -1000.00
00694           -1000.00
00695            -800.00
00696           -1000.00
00697           -1400.00
00698           -1200.00
00699           -1400.00
00700           -1600.00
00701           -1600.00
00702           -1800.00
00703           -1800.00
00704           -1800.00
00705           -2000.00
00706           -2000.00
00707           -2000.00
00708           -2000.00
00709           -2200.00
00710           -2000.00
00711           -2400.00
00712           -2600.00
00713           -2400.00
00714           -2600.00
00715           -2600.00
00716           -2800.00
00717           -2800.00
00718           -2800.00
00719           -2800.00
00720           -2800.00
00721           -3000.00
00722           -3000.00
00723           -3200.00
00724           -3200.00
00725           -3200.00
00726           -3400.00
00727           -3400.00
00728           -3600.00
00729           -3400.00
00730           -3600.00
00731           -3600.00
00732           -3600.00
00733           -3600.00
00734           -3600.00
00735           -3600.00
00736           -4000.00
00737           -3800.00
00738           -4000.00
00739           -4000.00
00740           -4000.00
00741           -4000.00
00742           -4000.00
00743           -4000.00
00744           -4000.00
00745           -4000.00
00746           -4200.00
00747           -4200.00
00748           -4200.00
00749           -4200.00
00750           -4200.00
00751           -4400.00
00752           -4200.00
00753           -4200.00
00754           -4200.00
00755           -4400.00
00756           -4200.00
00757           -4400.00
00758           -4400.00
00759           -4400.00
00760           -4400.00
00761           -4400.00
00762           -4400.00
00763           -4400.00
00764           -4400.00
00765           -4400.00
00766           -4400.00
