Unit:(mV)
                     CH2
Frequency    301.364 kHz
00001            1800.00
00002            1600.00
00003            1400.00
00004            1200.00
00005            1000.00
00006             600.00
00007             600.00
00008             400.00
00009               0.00
00010               0.00
00011            -200.00
00012            -400.00
00013            -600.00
00014            -800.00
00015            -800.00
00016           -1000.00
00017           -1200.00
00018           -1600.00
00019           -1600.00
00020           -2000.00
00021           -2400.00
00022           -2400.00
00023           -2200.00
00024           -2400.00
00025           -3000.00
00026           -2800.00
00027           -2800.00
00028           -3400.00
00029           -3600.00
00030           -3400.00
00031           -3800.00
00032           -4200.00
00033           -4000.00
00034           -4400.00
00035           -4600.00
00036           -4600.00
00037           -4800.00
00038           -5000.00
00039           -5200.00
00040           -5600.00
00041           -5600.00
00042           -5800.00
00043           -6000.00
00044           -6000.00
00045           -6200.00
00046           -6400.00
00047           -6600.00
00048           -6600.00
00049           -6800.00
00050           -7000.00
00051           -7200.00
00052           -7200.00
00053           -7400.00
00054           -7400.00
00055           -7800.00
00056           -7600.00
00057           -8000.00
00058           -8000.00
00059           -8000.00
00060           -8200.00
00061           -8400.00
00062           -8400.00
00063           -8600.00
00064           -8800.00
00065           -8800.00
00066           -8800.00
00067           -9000.00
00068           -9000.00
00069           -9200.00
00070           -9200.00
00071           -9200.00
00072           -9400.00
00073           -9400.00
00074           -9600.00
00075           -9600.00
00076           -9800.00
00077           -9800.00
00078           -9600.00
00079           -9800.00
00080           -9800.00
00081          -10000.00
00082           -9800.00
00083          -10000.00
00084          -10000.00
00085          -10000.00
00086          -10000.00
00087          -10000.00
00088          -10000.00
00089          -10000.00
00090          -10000.00
00091          -10000.00
00092          -10000.00
00093          -10000.00
00094          -10200.00
00095          -10000.00
00096          -10000.00
00097          -10000.00
00098          -10000.00
00099          -10000.00
00100          -10000.00
00101          -10000.00
00102          -10000.00
00103           -9800.00
00104           -9800.00
00105           -9800.00
00106           -9800.00
00107           -9600.00
00108           -9600.00
00109           -9600.00
00110           -9600.00
00111           -9200.00
00112           -9400.00
00113           -9200.00
00114           -9200.00
00115           -9200.00
00116           -9000.00
00117           -9000.00
00118           -8800.00
00119           -8800.00
00120           -8800.00
00121           -8800.00
00122           -8600.00
00123           -8400.00
00124           -8400.00
00125           -8200.00
00126           -8200.00
00127           -8000.00
00128           -7800.00
00129           -7600.00
00130           -7600.00
00131           -7400.00
00132           -7400.00
00133           -7200.00
00134           -7200.00
00135           -7000.00
00136           -6800.00
00137           -6600.00
00138           -6600.00
00139           -6400.00
00140           -6400.00
00141           -6000.00
00142           -6000.00
00143           -5800.00
00144           -5600.00
00145           -5400.00
00146           -5200.00
00147           -5000.00
00148           -5000.00
00149           -4800.00
00150           -4600.00
00151           -4400.00
00152           -4200.00
00153           -4200.00
00154           -3800.00
00155           -3600.00
00156           -3600.00
00157           -3400.00
00158           -3200.00
00159           -3000.00
00160           -2800.00
00161           -2600.00
00162           -2400.00
00163           -2400.00
00164           -2000.00
00165           -1800.00
00166           -1800.00
00167           -1600.00
00168           -1200.00
00169           -1400.00
00170           -1000.00
00171            -800.00
00172            -800.00
00173            -400.00
00174            -200.00
00175               0.00
00176             200.00
00177             400.00
00178             400.00
00179             600.00
00180             800.00
00181             800.00
00182            1200.00
00183            1400.00
00184            1800.00
00185            2000.00
00186            2000.00
00187            2400.00
00188            2400.00
00189            2400.00
00190            2800.00
00191            3000.00
00192            3000.00
00193            3200.00
00194            3600.00
00195            3600.00
00196            3600.00
00197            4000.00
00198            4200.00
00199            4200.00
00200            4400.00
00201            4600.00
00202            4800.00
00203            5200.00
00204            5200.00
00205            5400.00
00206            5600.00
00207            5800.00
00208            6000.00
00209            6000.00
00210            6400.00
00211            6400.00
00212            6400.00
00213            6800.00
00214            7000.00
00215            6800.00
00216            7000.00
00217            7400.00
00218            7200.00
00219            7400.00
00220            7800.00
00221            7800.00
00222            8000.00
00223            8200.00
00224            8000.00
00225            8400.00
00226            8600.00
00227            8400.00
00228            8600.00
00229            8800.00
00230            8800.00
00231            8800.00
00232            9000.00
00233            8800.00
00234            9200.00
00235            9200.00
00236            9200.00
00237            9400.00
00238            9600.00
00239            9600.00
00240            9600.00
00241            9600.00
00242            9800.00
00243            9600.00
00244            9800.00
00245           10000.00
00246           10000.00
00247           10000.00
00248           10000.00
00249           10000.00
00250           10000.00
00251           10000.00
00252           10200.00
00253           10200.00
00254           10200.00
00255           10200.00
00256           10200.00
00257           10200.00
00258           10200.00
00259           10200.00
00260           10200.00
00261           10200.00
00262           10200.00
00263           10200.00
00264           10200.00
00265           10000.00
00266           10000.00
00267           10200.00
00268           10200.00
00269           10000.00
00270           10000.00
00271           10000.00
00272           10000.00
00273            9800.00
00274            9800.00
00275            9800.00
00276            9600.00
00277            9600.00
00278            9400.00
00279            9600.00
00280            9400.00
00281            9400.00
00282            9200.00
00283            9200.00
00284            9200.00
00285            9000.00
00286            8800.00
00287            8800.00
00288            8600.00
00289            8600.00
00290            8600.00
00291            8400.00
00292            8400.00
00293            8200.00
00294            8000.00
00295            8000.00
00296            7800.00
00297            7600.00
00298            7400.00
00299            7200.00
00300            7200.00
00301            7200.00
00302            7000.00
00303            6800.00
00304            6600.00
00305            6400.00
00306            6400.00
00307            6200.00
00308            6200.00
00309            6000.00
00310            5600.00
00311            5600.00
00312            5400.00
00313            5200.00
00314            5200.00
00315            5000.00
00316            4800.00
00317            4600.00
00318            4400.00
00319            4200.00
00320            4000.00
00321            3800.00
00322            3600.00
00323            3600.00
00324            3200.00
00325            3000.00
00326            3000.00
00327            2800.00
00328            2600.00
00329            2400.00
00330            2200.00
00331            2000.00
00332            2000.00
00333            1800.00
00334            1400.00
00335            1400.00
00336            1000.00
00337             800.00
00338             600.00
00339             600.00
00340             400.00
00341             200.00
00342               0.00
00343            -400.00
00344            -400.00
00345            -400.00
00346            -800.00
00347            -800.00
00348           -1000.00
00349           -1200.00
00350           -1600.00
00351           -1600.00
00352           -2000.00
00353           -2400.00
00354           -2400.00
00355           -2400.00
00356           -2400.00
00357           -3000.00
00358           -3000.00
00359           -3000.00
00360           -3400.00
00361           -3600.00
00362           -3600.00
00363           -3800.00
00364           -4200.00
00365           -4200.00
00366           -4400.00
00367           -4800.00
00368           -4600.00
00369           -4800.00
00370           -5000.00
00371           -5200.00
00372           -5600.00
00373           -5600.00
00374           -5800.00
00375           -5800.00
00376           -6200.00
00377           -6200.00
00378           -6600.00
00379           -6600.00
00380           -6600.00
00381           -7000.00
00382           -7200.00
00383           -7000.00
00384           -7400.00
00385           -7400.00
00386           -7400.00
00387           -7600.00
00388           -7800.00
00389           -8000.00
00390           -8200.00
00391           -8200.00
00392           -8200.00
00393           -8400.00
00394           -8400.00
00395           -8600.00
00396           -8800.00
00397           -8800.00
00398           -8800.00
00399           -8800.00
00400           -9000.00
00401           -9200.00
00402           -9200.00
00403           -9400.00
00404           -9200.00
00405           -9400.00
00406           -9600.00
00407           -9600.00
00408           -9600.00
00409           -9800.00
00410           -9600.00
00411           -9800.00
00412          -10000.00
00413           -9800.00
00414          -10000.00
00415          -10000.00
00416          -10000.00
00417          -10000.00
00418          -10000.00
00419          -10000.00
00420          -10000.00
00421          -10000.00
00422          -10200.00
00423          -10000.00
00424          -10000.00
00425          -10000.00
00426          -10400.00
00427          -10000.00
00428          -10000.00
00429          -10000.00
00430          -10000.00
00431          -10000.00
00432          -10000.00
00433          -10000.00
00434          -10000.00
00435          -10000.00
00436           -9800.00
00437           -9800.00
00438           -9800.00
00439           -9600.00
00440           -9800.00
00441           -9600.00
00442           -9600.00
00443           -9600.00
00444           -9600.00
00445           -9400.00
00446           -9200.00
00447           -9200.00
00448           -9200.00
00449           -9000.00
00450           -8800.00
00451           -8800.00
00452           -8800.00
00453           -8800.00
00454           -8400.00
00455           -8400.00
00456           -8400.00
00457           -8200.00
00458           -8200.00
00459           -8000.00
00460           -8000.00
00461           -7800.00
00462           -7600.00
00463           -7600.00
00464           -7400.00
00465           -7200.00
00466           -7200.00
00467           -6800.00
00468           -6800.00
00469           -6800.00
00470           -6600.00
00471           -6400.00
00472           -6400.00
00473           -6000.00
00474           -5800.00
00475           -5800.00
00476           -5600.00
00477           -5600.00
00478           -5200.00
00479           -5000.00
00480           -5000.00
00481           -4600.00
00482           -4600.00
00483           -4400.00
00484           -4200.00
00485           -4000.00
00486           -4000.00
00487           -3600.00
00488           -3600.00
00489           -3200.00
00490           -3200.00
00491           -2800.00
00492           -2800.00
00493           -2600.00
00494           -2400.00
00495           -2400.00
00496           -2000.00
00497           -2000.00
00498           -1600.00
00499           -1600.00
00500           -1200.00
00501           -1000.00
00502           -1000.00
00503            -800.00
00504            -600.00
00505            -200.00
00506            -200.00
00507               0.00
00508             200.00
00509             400.00
00510             600.00
00511             800.00
00512             800.00
00513            1200.00
00514            1400.00
00515            1400.00
00516            1800.00
00517            2000.00
00518            2200.00
00519            2400.00
00520            2400.00
00521            2400.00
00522            2800.00
00523            3000.00
00524            3200.00
00525            3200.00
00526            3600.00
00527            3600.00
00528            3800.00
00529            4000.00
00530            4400.00
00531            4400.00
00532            4600.00
00533            4800.00
00534            4800.00
00535            5200.00
00536            5400.00
00537            5400.00
00538            5600.00
00539            5800.00
00540            6000.00
00541            6200.00
00542            6200.00
00543            6400.00
00544            6600.00
00545            6400.00
00546            6800.00
00547            7200.00
00548            7200.00
00549            7200.00
00550            7200.00
00551            7400.00
00552            7800.00
00553            7800.00
00554            8000.00
00555            8000.00
00556            8200.00
00557            8400.00
00558            8600.00
00559            8400.00
00560            8600.00
00561            8800.00
00562            8800.00
00563            8800.00
00564            9200.00
00565            9200.00
00566            9200.00
00567            9400.00
00568            9400.00
00569            9400.00
00570            9400.00
00571            9600.00
00572            9600.00
00573            9600.00
00574            9800.00
00575            9800.00
00576           10000.00
00577           10000.00
00578           10000.00
00579           10000.00
00580           10000.00
00581           10200.00
00582           10200.00
00583           10200.00
00584           10000.00
00585           10200.00
00586           10200.00
00587           10200.00
00588           10200.00
00589           10200.00
00590           10200.00
00591           10400.00
00592           10200.00
00593           10200.00
00594           10200.00
00595           10200.00
00596           10200.00
00597           10200.00
00598           10200.00
00599           10200.00
00600           10000.00
00601           10000.00
00602           10000.00
00603            9800.00
00604           10000.00
00605            9800.00
00606            9600.00
00607            9600.00
00608            9600.00
00609            9600.00
00610            9400.00
00611            9400.00
00612            9400.00
00613            9400.00
00614            9400.00
00615            9200.00
00616            9000.00
00617            8800.00
00618            8800.00
00619            8800.00
00620            8600.00
00621            8600.00
00622            8400.00
00623            8400.00
00624            8400.00
00625            8200.00
00626            8000.00
00627            7800.00
00628            7800.00
00629            7600.00
00630            7600.00
00631            7400.00
00632            7200.00
00633            7000.00
00634            6800.00
00635            6800.00
00636            6600.00
00637            6600.00
00638            6400.00
00639            6200.00
00640            6000.00
00641            6000.00
00642            5800.00
00643            5600.00
00644            5400.00
00645            5400.00
00646            5200.00
00647            4800.00
00648            4600.00
00649            4400.00
00650            4400.00
00651            4200.00
00652            4000.00
00653            3800.00
00654            3600.00
00655            3600.00
00656            3200.00
00657            3200.00
00658            3000.00
00659            2800.00
00660            2600.00
00661            2400.00
00662            2200.00
00663            2000.00
00664            1800.00
00665            1600.00
00666            1400.00
00667            1400.00
00668            1200.00
00669             600.00
00670             600.00
00671             400.00
00672             400.00
00673               0.00
00674            -200.00
00675            -400.00
00676            -400.00
00677            -600.00
00678            -800.00
00679           -1000.00
00680           -1000.00
00681           -1400.00
00682           -1400.00
00683           -1800.00
00684           -2000.00
00685           -2400.00
00686           -2400.00
00687           -2200.00
00688           -2600.00
00689           -3200.00
00690           -3000.00
00691           -3200.00
00692           -3400.00
00693           -3600.00
00694           -3600.00
00695           -4000.00
00696           -4200.00
00697           -4200.00
00698           -4400.00
00699           -4600.00
00700           -4800.00
00701           -5000.00
00702           -5200.00
00703           -5200.00
00704           -5600.00
00705           -5800.00
00706           -5800.00
00707           -6000.00
00708           -6000.00
00709           -6200.00
00710           -6600.00
00711           -6600.00
00712           -6800.00
00713           -6800.00
00714           -6800.00
00715           -7200.00
00716           -7400.00
00717           -7400.00
00718           -7600.00
00719           -7800.00
00720           -8000.00
00721           -8000.00
00722           -8200.00
00723           -8200.00
00724           -8200.00
00725           -8400.00
00726           -8600.00
00727           -8600.00
00728           -8800.00
00729           -8800.00
00730           -9000.00
00731           -9000.00
00732           -9000.00
00733           -9200.00
00734           -9200.00
00735           -9200.00
00736           -9400.00
00737           -9400.00
00738           -9600.00
00739           -9600.00
00740           -9600.00
00741           -9800.00
00742           -9800.00
00743           -9800.00
00744           -9800.00
00745           -9800.00
00746          -10000.00
00747          -10000.00
00748          -10000.00
00749          -10000.00
00750          -10000.00
00751          -10000.00
00752          -10000.00
00753          -10000.00
00754          -10000.00
00755          -10000.00
00756          -10200.00
00757          -10000.00
00758          -10000.00
00759          -10000.00
00760          -10000.00
00761          -10000.00
00762          -10000.00
00763           -9800.00
00764          -10000.00
00765          -10000.00
00766           -9800.00
