Unit:(mV)
                     CH2
Frequency    301.311 kHz
00001            2800.00
00002            2400.00
00003            2000.00
00004            1600.00
00005            1400.00
00006             800.00
00007             600.00
00008               0.00
00009            -200.00
00010            -400.00
00011            -800.00
00012           -1200.00
00013           -1600.00
00014           -2000.00
00015           -2200.00
00016           -2600.00
00017           -2800.00
00018           -3400.00
00019           -3600.00
00020           -4400.00
00021           -4600.00
00022           -5000.00
00023           -5000.00
00024           -5200.00
00025           -5800.00
00026           -6200.00
00027           -6600.00
00028           -6800.00
00029           -7200.00
00030           -7400.00
00031           -8000.00
00032           -8200.00
00033           -8800.00
00034           -9200.00
00035           -9200.00
00036           -9600.00
00037          -10000.00
00038          -10200.00
00039          -10800.00
00040          -10800.00
00041          -11200.00
00042          -11600.00
00043          -12000.00
00044          -12400.00
00045          -12600.00
00046          -12800.00
00047          -13200.00
00048          -13200.00
00049          -13600.00
00050          -14000.00
00051          -14000.00
00052          -14400.00
00053          -14800.00
00054          -14800.00
00055          -15200.00
00056          -15400.00
00057          -15600.00
00058          -16000.00
00059          -16000.00
00060          -16400.00
00061          -16400.00
00062          -16800.00
00063          -17000.00
00064          -17200.00
00065          -17200.00
00066          -17600.00
00067          -17600.00
00068          -17800.00
00069          -18000.00
00070          -18000.00
00071          -18400.00
00072          -18400.00
00073          -18600.00
00074          -18600.00
00075          -18800.00
00076          -18800.00
00077          -19000.00
00078          -19200.00
00079          -19200.00
00080          -19200.00
00081          -19400.00
00082          -19600.00
00083          -19600.00
00084          -19600.00
00085          -19600.00
00086          -19600.00
00087          -19600.00
00088          -19800.00
00089          -19800.00
00090          -19600.00
00091          -19600.00
00092          -19800.00
00093          -19600.00
00094          -19600.00
00095          -19600.00
00096          -19600.00
00097          -19600.00
00098          -19600.00
00099          -19600.00
00100          -19400.00
00101          -19400.00
00102          -19200.00
00103          -19400.00
00104          -19200.00
00105          -19000.00
00106          -19000.00
00107          -18800.00
00108          -18800.00
00109          -18600.00
00110          -18600.00
00111          -18400.00
00112          -18200.00
00113          -18200.00
00114          -17800.00
00115          -17800.00
00116          -17600.00
00117          -17400.00
00118          -17200.00
00119          -17000.00
00120          -16800.00
00121          -16600.00
00122          -16600.00
00123          -16200.00
00124          -16200.00
00125          -15800.00
00126          -15600.00
00127          -15400.00
00128          -15200.00
00129          -14800.00
00130          -14600.00
00131          -14400.00
00132          -14200.00
00133          -13800.00
00134          -13600.00
00135          -13400.00
00136          -13200.00
00137          -12800.00
00138          -12400.00
00139          -12200.00
00140          -12000.00
00141          -11600.00
00142          -11200.00
00143          -10800.00
00144          -10600.00
00145          -10200.00
00146          -10000.00
00147           -9600.00
00148           -9400.00
00149           -9000.00
00150           -8600.00
00151           -8200.00
00152           -8000.00
00153           -7600.00
00154           -7400.00
00155           -6800.00
00156           -6600.00
00157           -6400.00
00158           -6000.00
00159           -5600.00
00160           -5000.00
00161           -4600.00
00162           -4400.00
00163           -4000.00
00164           -3600.00
00165           -3200.00
00166           -2800.00
00167           -2600.00
00168           -2200.00
00169           -1800.00
00170           -1400.00
00171           -1000.00
00172            -800.00
00173            -400.00
00174               0.00
00175             400.00
00176             800.00
00177            1200.00
00178            1400.00
00179            1800.00
00180            2000.00
00181            2400.00
00182            2800.00
00183            3000.00
00184            3400.00
00185            3800.00
00186            4400.00
00187            4800.00
00188            5200.00
00189            5400.00
00190            5600.00
00191            6000.00
00192            6400.00
00193            6600.00
00194            7200.00
00195            7400.00
00196            7800.00
00197            8200.00
00198            8400.00
00199            8800.00
00200            9200.00
00201            9400.00
00202           10000.00
00203           10200.00
00204           10400.00
00205           10800.00
00206           11000.00
00207           11200.00
00208           11600.00
00209           12000.00
00210           12400.00
00211           12600.00
00212           12800.00
00213           13200.00
00214           13400.00
00215           13600.00
00216           14000.00
00217           14200.00
00218           14600.00
00219           14800.00
00220           15000.00
00221           15400.00
00222           15600.00
00223           15800.00
00224           16000.00
00225           16400.00
00226           16400.00
00227           16600.00
00228           16800.00
00229           17200.00
00230           17200.00
00231           17400.00
00232           17600.00
00233           18000.00
00234           18000.00
00235           18200.00
00236           18400.00
00237           18400.00
00238           18600.00
00239           18600.00
00240           19000.00
00241           19000.00
00242           19000.00
00243           19200.00
00244           19200.00
00245           19600.00
00246           19200.00
00247           19600.00
00248           19600.00
00249           19600.00
00250           19800.00
00251           19800.00
00252           19800.00
00253           19800.00
00254           20000.00
00255           20000.00
00256           20000.00
00257           19800.00
00258           20000.00
00259           20000.00
00260           19800.00
00261           20000.00
00262           19800.00
00263           19600.00
00264           19800.00
00265           19600.00
00266           19600.00
00267           19600.00
00268           19600.00
00269           19400.00
00270           19200.00
00271           19200.00
00272           19200.00
00273           19000.00
00274           19000.00
00275           19000.00
00276           18600.00
00277           18400.00
00278           18400.00
00279           18200.00
00280           18000.00
00281           18000.00
00282           17600.00
00283           17600.00
00284           17400.00
00285           17200.00
00286           17000.00
00287           16800.00
00288           16600.00
00289           16600.00
00290           16200.00
00291           16000.00
00292           15600.00
00293           15600.00
00294           15200.00
00295           15000.00
00296           14800.00
00297           14400.00
00298           14200.00
00299           14000.00
00300           13600.00
00301           13400.00
00302           13200.00
00303           13000.00
00304           12600.00
00305           12400.00
00306           12000.00
00307           11600.00
00308           11200.00
00309           11000.00
00310           10800.00
00311           10600.00
00312           10000.00
00313            9800.00
00314            9600.00
00315            9200.00
00316            8800.00
00317            8400.00
00318            8000.00
00319            7800.00
00320            7400.00
00321            7200.00
00322            6800.00
00323            6400.00
00324            6000.00
00325            5600.00
00326            5400.00
00327            4800.00
00328            4600.00
00329            4400.00
00330            3800.00
00331            3600.00
00332            3200.00
00333            2800.00
00334            2400.00
00335            2000.00
00336            1600.00
00337            1200.00
00338             800.00
00339             400.00
00340               0.00
00341            -200.00
00342            -600.00
00343            -800.00
00344           -1200.00
00345           -1600.00
00346           -2000.00
00347           -2400.00
00348           -2600.00
00349           -3000.00
00350           -3400.00
00351           -4000.00
00352           -4400.00
00353           -4800.00
00354           -5000.00
00355           -5000.00
00356           -5200.00
00357           -6000.00
00358           -6000.00
00359           -6600.00
00360           -7000.00
00361           -7200.00
00362           -7600.00
00363           -8200.00
00364           -8200.00
00365           -8800.00
00366           -9200.00
00367           -9200.00
00368           -9600.00
00369          -10000.00
00370          -10200.00
00371          -10800.00
00372          -10800.00
00373          -11200.00
00374          -11600.00
00375          -12000.00
00376          -12200.00
00377          -12400.00
00378          -12800.00
00379          -13000.00
00380          -13400.00
00381          -13600.00
00382          -14000.00
00383          -14000.00
00384          -14600.00
00385          -14800.00
00386          -14800.00
00387          -15400.00
00388          -15400.00
00389          -15600.00
00390          -16000.00
00391          -16200.00
00392          -16400.00
00393          -16400.00
00394          -16800.00
00395          -16800.00
00396          -17200.00
00397          -17200.00
00398          -17600.00
00399          -17600.00
00400          -17800.00
00401          -18000.00
00402          -18200.00
00403          -18400.00
00404          -18400.00
00405          -18600.00
00406          -18800.00
00407          -18800.00
00408          -18800.00
00409          -19200.00
00410          -19200.00
00411          -19200.00
00412          -19400.00
00413          -19400.00
00414          -19600.00
00415          -19400.00
00416          -19600.00
00417          -19600.00
00418          -19800.00
00419          -19600.00
00420          -19600.00
00421          -19600.00
00422          -19600.00
00423          -20000.00
00424          -19800.00
00425          -19600.00
00426          -19600.00
00427          -19600.00
00428          -19800.00
00429          -19600.00
00430          -19600.00
00431          -19600.00
00432          -19400.00
00433          -19400.00
00434          -19400.00
00435          -19200.00
00436          -19200.00
00437          -19000.00
00438          -19000.00
00439          -19000.00
00440          -18600.00
00441          -18800.00
00442          -18600.00
00443          -18400.00
00444          -18400.00
00445          -18000.00
00446          -17800.00
00447          -17800.00
00448          -17400.00
00449          -17400.00
00450          -17200.00
00451          -17000.00
00452          -17000.00
00453          -16800.00
00454          -16400.00
00455          -16400.00
00456          -15800.00
00457          -15600.00
00458          -15600.00
00459          -15400.00
00460          -15200.00
00461          -14800.00
00462          -14600.00
00463          -14400.00
00464          -14000.00
00465          -13800.00
00466          -13400.00
00467          -13200.00
00468          -13000.00
00469          -12800.00
00470          -12400.00
00471          -12200.00
00472          -11600.00
00473          -11600.00
00474          -11200.00
00475          -10800.00
00476          -10600.00
00477          -10200.00
00478           -9800.00
00479           -9800.00
00480           -9200.00
00481           -8800.00
00482           -8800.00
00483           -8400.00
00484           -8200.00
00485           -7600.00
00486           -7200.00
00487           -6800.00
00488           -6600.00
00489           -6000.00
00490           -5800.00
00491           -5600.00
00492           -5000.00
00493           -4800.00
00494           -4400.00
00495           -4000.00
00496           -3600.00
00497           -3200.00
00498           -2800.00
00499           -2400.00
00500           -2200.00
00501           -1800.00
00502           -1200.00
00503           -1000.00
00504            -800.00
00505            -200.00
00506               0.00
00507             400.00
00508             800.00
00509            1200.00
00510            1400.00
00511            1800.00
00512            2000.00
00513            2400.00
00514            2800.00
00515            3000.00
00516            3600.00
00517            4000.00
00518            4400.00
00519            4800.00
00520            5200.00
00521            5200.00
00522            5800.00
00523            6200.00
00524            6400.00
00525            6600.00
00526            7200.00
00527            7200.00
00528            7800.00
00529            8200.00
00530            8400.00
00531            8800.00
00532            9200.00
00533            9400.00
00534           10000.00
00535           10200.00
00536           10400.00
00537           10800.00
00538           11000.00
00539           11400.00
00540           11600.00
00541           12000.00
00542           12400.00
00543           12600.00
00544           12800.00
00545           13200.00
00546           13400.00
00547           13800.00
00548           14200.00
00549           14200.00
00550           14800.00
00551           14800.00
00552           15000.00
00553           15400.00
00554           15600.00
00555           15800.00
00556           16000.00
00557           16200.00
00558           16600.00
00559           16800.00
00560           16800.00
00561           17200.00
00562           17400.00
00563           17400.00
00564           17600.00
00565           17800.00
00566           18000.00
00567           18000.00
00568           18400.00
00569           18400.00
00570           18600.00
00571           18600.00
00572           19000.00
00573           19000.00
00574           19000.00
00575           19200.00
00576           19200.00
00577           19400.00
00578           19400.00
00579           19600.00
00580           19600.00
00581           19600.00
00582           19600.00
00583           19800.00
00584           19800.00
00585           20000.00
00586           19800.00
00587           20000.00
00588           19800.00
00589           20000.00
00590           19800.00
00591           19800.00
00592           19800.00
00593           19800.00
00594           19800.00
00595           19800.00
00596           19800.00
00597           19600.00
00598           19600.00
00599           19600.00
00600           19400.00
00601           19400.00
00602           19200.00
00603           19200.00
00604           19200.00
00605           19000.00
00606           18800.00
00607           18800.00
00608           18600.00
00609           18600.00
00610           18400.00
00611           18200.00
00612           18000.00
00613           18000.00
00614           17600.00
00615           17600.00
00616           17400.00
00617           17200.00
00618           17000.00
00619           16800.00
00620           16600.00
00621           16400.00
00622           16200.00
00623           15800.00
00624           15800.00
00625           15600.00
00626           15200.00
00627           15000.00
00628           14800.00
00629           14400.00
00630           14200.00
00631           14000.00
00632           13600.00
00633           13400.00
00634           13200.00
00635           12800.00
00636           12600.00
00637           12200.00
00638           12000.00
00639           11600.00
00640           11200.00
00641           11000.00
00642           10600.00
00643           10400.00
00644           10000.00
00645            9600.00
00646            9400.00
00647            9200.00
00648            8800.00
00649            8400.00
00650            8000.00
00651            7800.00
00652            7200.00
00653            7000.00
00654            6800.00
00655            6400.00
00656            6000.00
00657            5600.00
00658            5400.00
00659            4800.00
00660            4400.00
00661            4000.00
00662            3800.00
00663            3400.00
00664            3000.00
00665            2800.00
00666            2400.00
00667            2000.00
00668            1600.00
00669            1200.00
00670             800.00
00671             400.00
00672               0.00
00673            -200.00
00674            -600.00
00675            -800.00
00676           -1400.00
00677           -1600.00
00678           -2000.00
00679           -2400.00
00680           -2600.00
00681           -2800.00
00682           -3400.00
00683           -4000.00
00684           -4600.00
00685           -4800.00
00686           -5000.00
00687           -5000.00
00688           -5600.00
00689           -6000.00
00690           -6200.00
00691           -6600.00
00692           -7200.00
00693           -7200.00
00694           -7600.00
00695           -8200.00
00696           -8400.00
00697           -8800.00
00698           -9200.00
00699           -9400.00
00700           -9600.00
00701          -10000.00
00702          -10400.00
00703          -10800.00
00704          -11000.00
00705          -11200.00
00706          -11800.00
00707          -11800.00
00708          -12400.00
00709          -12400.00
00710          -13000.00
00711          -13200.00
00712          -13400.00
00713          -13600.00
00714          -14000.00
00715          -14400.00
00716          -14600.00
00717          -14800.00
00718          -14800.00
00719          -15400.00
00720          -15400.00
00721          -15600.00
00722          -16000.00
00723          -16200.00
00724          -16400.00
00725          -16600.00
00726          -16800.00
00727          -17000.00
00728          -17200.00
00729          -17400.00
00730          -17600.00
00731          -17800.00
00732          -18000.00
00733          -18000.00
00734          -18400.00
00735          -18400.00
00736          -18600.00
00737          -18600.00
00738          -18800.00
00739          -18800.00
00740          -18800.00
00741          -19200.00
00742          -19200.00
00743          -19200.00
00744          -19400.00
00745          -19400.00
00746          -19600.00
00747          -19600.00
00748          -19600.00
00749          -19600.00
00750          -19600.00
00751          -19600.00
00752          -19800.00
00753          -19800.00
00754          -19800.00
00755          -19600.00
00756          -19600.00
00757          -19600.00
00758          -19800.00
00759          -19600.00
00760          -19600.00
00761          -19600.00
00762          -19600.00
00763          -19600.00
00764          -19400.00
00765          -19400.00
00766          -19400.00
