Unit:(mV)
                     CH2
Frequency    301.238 kHz
00001            2000.00
00002            1600.00
00003            1400.00
00004            1200.00
00005            1000.00
00006             600.00
00007             400.00
00008             200.00
00009               0.00
00010            -200.00
00011            -400.00
00012            -600.00
00013            -800.00
00014           -1000.00
00015           -1200.00
00016           -1600.00
00017           -1800.00
00018           -1800.00
00019           -2200.00
00020           -2600.00
00021           -2800.00
00022           -2800.00
00023           -2800.00
00024           -3200.00
00025           -3600.00
00026           -3600.00
00027           -3600.00
00028           -4200.00
00029           -4200.00
00030           -4400.00
00031           -4600.00
00032           -5000.00
00033           -4600.00
00034           -5400.00
00035           -5600.00
00036           -5800.00
00037           -6000.00
00038           -6000.00
00039           -6200.00
00040           -6600.00
00041           -6800.00
00042           -6800.00
00043           -7200.00
00044           -7400.00
00045           -7400.00
00046           -7800.00
00047           -7600.00
00048           -8200.00
00049           -8200.00
00050           -8200.00
00051           -8400.00
00052           -8800.00
00053           -8800.00
00054           -9000.00
00055           -9200.00
00056           -9200.00
00057           -9600.00
00058           -9600.00
00059           -9800.00
00060           -9800.00
00061          -10000.00
00062          -10000.00
00063          -10200.00
00064          -10400.00
00065          -10600.00
00066          -10600.00
00067          -10800.00
00068          -10800.00
00069          -10800.00
00070          -10800.00
00071          -11000.00
00072          -11200.00
00073          -11000.00
00074          -11200.00
00075          -11400.00
00076          -11400.00
00077          -11400.00
00078          -11600.00
00079          -11600.00
00080          -11600.00
00081          -11600.00
00082          -12000.00
00083          -12000.00
00084          -12000.00
00085          -12000.00
00086          -12000.00
00087          -12000.00
00088          -12000.00
00089          -12000.00
00090          -12200.00
00091          -12200.00
00092          -12000.00
00093          -12000.00
00094          -12000.00
00095          -12000.00
00096          -12000.00
00097          -12000.00
00098          -12000.00
00099          -11800.00
00100          -12000.00
00101          -11800.00
00102          -12000.00
00103          -11600.00
00104          -11600.00
00105          -11600.00
00106          -11600.00
00107          -11600.00
00108          -11400.00
00109          -11400.00
00110          -11000.00
00111          -11000.00
00112          -11200.00
00113          -11000.00
00114          -11000.00
00115          -10800.00
00116          -10800.00
00117          -10600.00
00118          -10600.00
00119          -10400.00
00120          -10200.00
00121          -10000.00
00122          -10000.00
00123          -10000.00
00124           -9800.00
00125           -9600.00
00126           -9600.00
00127           -9600.00
00128           -9200.00
00129           -9200.00
00130           -9000.00
00131           -8800.00
00132           -8800.00
00133           -8400.00
00134           -8400.00
00135           -8200.00
00136           -8000.00
00137           -8000.00
00138           -7600.00
00139           -7600.00
00140           -7200.00
00141           -7200.00
00142           -7000.00
00143           -6800.00
00144           -6600.00
00145           -6400.00
00146           -6200.00
00147           -6000.00
00148           -5800.00
00149           -5600.00
00150           -5200.00
00151           -5000.00
00152           -5000.00
00153           -4600.00
00154           -4400.00
00155           -4400.00
00156           -4000.00
00157           -4000.00
00158           -3600.00
00159           -3400.00
00160           -3200.00
00161           -3000.00
00162           -2800.00
00163           -2600.00
00164           -2400.00
00165           -2400.00
00166           -2000.00
00167           -1800.00
00168           -1600.00
00169           -1200.00
00170           -1000.00
00171            -800.00
00172            -600.00
00173            -400.00
00174            -200.00
00175               0.00
00176             400.00
00177             600.00
00178             600.00
00179            1000.00
00180            1200.00
00181            1400.00
00182            1800.00
00183            2000.00
00184            2000.00
00185            2200.00
00186            2600.00
00187            3000.00
00188            3000.00
00189            3000.00
00190            3400.00
00191            3600.00
00192            3600.00
00193            3800.00
00194            4400.00
00195            4400.00
00196            4400.00
00197            5000.00
00198            5000.00
00199            5200.00
00200            5600.00
00201            5600.00
00202            6000.00
00203            6200.00
00204            6200.00
00205            6400.00
00206            6800.00
00207            6800.00
00208            7200.00
00209            7200.00
00210            7200.00
00211            7800.00
00212            7800.00
00213            8000.00
00214            8200.00
00215            8400.00
00216            8600.00
00217            8600.00
00218            8800.00
00219            8800.00
00220            9200.00
00221            9400.00
00222            9400.00
00223            9600.00
00224            9600.00
00225           10000.00
00226           10000.00
00227           10200.00
00228           10200.00
00229           10400.00
00230           10400.00
00231           10800.00
00232           10800.00
00233           10800.00
00234           10800.00
00235           11000.00
00236           11200.00
00237           11200.00
00238           11200.00
00239           11400.00
00240           11600.00
00241           11800.00
00242           11600.00
00243           11800.00
00244           11800.00
00245           11800.00
00246           12000.00
00247           11800.00
00248           12000.00
00249           12000.00
00250           12000.00
00251           12000.00
00252           12000.00
00253           12200.00
00254           12000.00
00255           12000.00
00256           12200.00
00257           12400.00
00258           12200.00
00259           12200.00
00260           12000.00
00261           12200.00
00262           12200.00
00263           12000.00
00264           12200.00
00265           12000.00
00266           12000.00
00267           12000.00
00268           12000.00
00269           11800.00
00270           11800.00
00271           11800.00
00272           11800.00
00273           11600.00
00274           11600.00
00275           11600.00
00276           11600.00
00277           11400.00
00278           11200.00
00279           11200.00
00280           11200.00
00281           11000.00
00282           11000.00
00283           10800.00
00284           10600.00
00285           10600.00
00286           10400.00
00287           10400.00
00288           10200.00
00289           10200.00
00290           10200.00
00291            9600.00
00292            9600.00
00293            9400.00
00294            9400.00
00295            9400.00
00296            9200.00
00297            9000.00
00298            8800.00
00299            8600.00
00300            8600.00
00301            8400.00
00302            8200.00
00303            8000.00
00304            7800.00
00305            7800.00
00306            7600.00
00307            7200.00
00308            7000.00
00309            7000.00
00310            6800.00
00311            6600.00
00312            6400.00
00313            6200.00
00314            6000.00
00315            5600.00
00316            5600.00
00317            5400.00
00318            5200.00
00319            4800.00
00320            4600.00
00321            4400.00
00322            4200.00
00323            3800.00
00324            3800.00
00325            3600.00
00326            3400.00
00327            3200.00
00328            3000.00
00329            2800.00
00330            2600.00
00331            2400.00
00332            2200.00
00333            1800.00
00334            1800.00
00335            1400.00
00336            1200.00
00337            1000.00
00338             600.00
00339             400.00
00340             400.00
00341               0.00
00342            -200.00
00343            -400.00
00344            -600.00
00345            -800.00
00346           -1000.00
00347           -1200.00
00348           -1600.00
00349           -1600.00
00350           -1800.00
00351           -2000.00
00352           -2600.00
00353           -2800.00
00354           -2800.00
00355           -2800.00
00356           -3200.00
00357           -3600.00
00358           -3600.00
00359           -3600.00
00360           -4000.00
00361           -4400.00
00362           -4400.00
00363           -4800.00
00364           -5000.00
00365           -5000.00
00366           -5600.00
00367           -5600.00
00368           -5600.00
00369           -6000.00
00370           -6200.00
00371           -6400.00
00372           -6600.00
00373           -6800.00
00374           -6800.00
00375           -7200.00
00376           -7200.00
00377           -7400.00
00378           -7600.00
00379           -7800.00
00380           -8000.00
00381           -8400.00
00382           -8400.00
00383           -8600.00
00384           -8800.00
00385           -8800.00
00386           -9000.00
00387           -9200.00
00388           -9200.00
00389           -9600.00
00390           -9600.00
00391           -9800.00
00392          -10000.00
00393          -10000.00
00394          -10000.00
00395          -10400.00
00396          -10400.00
00397          -10400.00
00398          -10600.00
00399          -10800.00
00400          -10800.00
00401          -10800.00
00402          -11000.00
00403          -11200.00
00404          -11000.00
00405          -11200.00
00406          -11200.00
00407          -11400.00
00408          -11400.00
00409          -11400.00
00410          -11600.00
00411          -11600.00
00412          -11600.00
00413          -11800.00
00414          -11600.00
00415          -12000.00
00416          -12000.00
00417          -12000.00
00418          -12000.00
00419          -12000.00
00420          -12000.00
00421          -12000.00
00422          -12000.00
00423          -12200.00
00424          -12200.00
00425          -12000.00
00426          -12000.00
00427          -12000.00
00428          -12000.00
00429          -12000.00
00430          -12000.00
00431          -12000.00
00432          -11600.00
00433          -12000.00
00434          -11800.00
00435          -12000.00
00436          -11600.00
00437          -11600.00
00438          -11600.00
00439          -11400.00
00440          -11400.00
00441          -11400.00
00442          -11400.00
00443          -11000.00
00444          -11200.00
00445          -11000.00
00446          -11000.00
00447          -10800.00
00448          -10800.00
00449          -10600.00
00450          -10600.00
00451          -10400.00
00452          -10400.00
00453          -10000.00
00454          -10000.00
00455          -10000.00
00456           -9800.00
00457           -9600.00
00458           -9800.00
00459           -9400.00
00460           -9200.00
00461           -9200.00
00462           -9000.00
00463           -8800.00
00464           -8600.00
00465           -8400.00
00466           -8400.00
00467           -8200.00
00468           -8000.00
00469           -8000.00
00470           -7800.00
00471           -7600.00
00472           -7400.00
00473           -7200.00
00474           -6800.00
00475           -6800.00
00476           -6600.00
00477           -6400.00
00478           -6200.00
00479           -6000.00
00480           -5800.00
00481           -5600.00
00482           -5400.00
00483           -5200.00
00484           -4800.00
00485           -4600.00
00486           -4400.00
00487           -4200.00
00488           -4000.00
00489           -4000.00
00490           -3600.00
00491           -3600.00
00492           -3200.00
00493           -3000.00
00494           -2800.00
00495           -2600.00
00496           -2400.00
00497           -2200.00
00498           -1800.00
00499           -1600.00
00500           -1600.00
00501           -1200.00
00502           -1000.00
00503            -800.00
00504            -400.00
00505            -400.00
00506            -200.00
00507               0.00
00508             400.00
00509             600.00
00510             600.00
00511            1000.00
00512            1200.00
00513            1400.00
00514            1600.00
00515            2000.00
00516            2000.00
00517            2200.00
00518            2800.00
00519            2800.00
00520            3000.00
00521            3000.00
00522            3400.00
00523            3600.00
00524            3600.00
00525            4000.00
00526            4400.00
00527            4200.00
00528            4600.00
00529            5000.00
00530            5000.00
00531            5400.00
00532            5600.00
00533            5600.00
00534            6000.00
00535            6200.00
00536            6400.00
00537            6400.00
00538            6800.00
00539            7000.00
00540            7000.00
00541            7200.00
00542            7400.00
00543            7600.00
00544            7800.00
00545            8000.00
00546            8200.00
00547            8400.00
00548            8600.00
00549            8800.00
00550            8800.00
00551            8800.00
00552            9200.00
00553            9200.00
00554            9400.00
00555            9600.00
00556            9600.00
00557           10000.00
00558           10000.00
00559           10200.00
00560           10200.00
00561           10400.00
00562           10600.00
00563           10800.00
00564           10800.00
00565           10800.00
00566           10800.00
00567           11000.00
00568           11000.00
00569           11000.00
00570           11200.00
00571           11200.00
00572           11400.00
00573           11600.00
00574           11600.00
00575           11600.00
00576           11800.00
00577           12000.00
00578           12000.00
00579           12000.00
00580           12000.00
00581           12000.00
00582           12000.00
00583           12000.00
00584           12000.00
00585           12000.00
00586           12000.00
00587           12000.00
00588           12000.00
00589           12400.00
00590           12400.00
00591           12200.00
00592           12000.00
00593           12200.00
00594           12000.00
00595           12000.00
00596           12000.00
00597           12000.00
00598           12000.00
00599           12000.00
00600           12000.00
00601           11800.00
00602           11800.00
00603           11800.00
00604           11600.00
00605           11600.00
00606           11600.00
00607           11400.00
00608           11400.00
00609           11200.00
00610           11200.00
00611           11200.00
00612           11000.00
00613           11000.00
00614           11000.00
00615           10800.00
00616           10800.00
00617           10600.00
00618           10400.00
00619           10400.00
00620           10200.00
00621           10000.00
00622           10000.00
00623            9800.00
00624            9600.00
00625            9400.00
00626            9400.00
00627            9200.00
00628            9200.00
00629            9000.00
00630            8800.00
00631            8800.00
00632            8600.00
00633            8400.00
00634            8200.00
00635            8000.00
00636            8000.00
00637            7600.00
00638            7400.00
00639            7400.00
00640            7000.00
00641            7000.00
00642            6800.00
00643            6600.00
00644            6400.00
00645            6000.00
00646            6000.00
00647            5800.00
00648            5600.00
00649            5400.00
00650            5000.00
00651            4800.00
00652            4800.00
00653            4600.00
00654            4400.00
00655            4000.00
00656            3800.00
00657            3600.00
00658            3400.00
00659            3200.00
00660            3000.00
00661            2800.00
00662            2600.00
00663            2400.00
00664            2000.00
00665            2000.00
00666            1800.00
00667            1400.00
00668            1200.00
00669            1000.00
00670             600.00
00671             400.00
00672             400.00
00673               0.00
00674            -200.00
00675            -400.00
00676            -400.00
00677            -800.00
00678           -1000.00
00679           -1200.00
00680           -1400.00
00681           -1600.00
00682           -1800.00
00683           -2000.00
00684           -2600.00
00685           -2800.00
00686           -3000.00
00687           -2800.00
00688           -3200.00
00689           -3600.00
00690           -3600.00
00691           -3600.00
00692           -4200.00
00693           -4400.00
00694           -4400.00
00695           -4800.00
00696           -5000.00
00697           -5000.00
00698           -5400.00
00699           -5600.00
00700           -5800.00
00701           -6000.00
00702           -6200.00
00703           -6400.00
00704           -6600.00
00705           -6600.00
00706           -6800.00
00707           -7200.00
00708           -7400.00
00709           -7600.00
00710           -8000.00
00711           -7800.00
00712           -8200.00
00713           -8200.00
00714           -8400.00
00715           -8600.00
00716           -8600.00
00717           -9000.00
00718           -9200.00
00719           -9200.00
00720           -9200.00
00721           -9600.00
00722           -9600.00
00723           -9800.00
00724          -10000.00
00725          -10000.00
00726          -10000.00
00727          -10200.00
00728          -10400.00
00729          -10400.00
00730          -10600.00
00731          -10800.00
00732          -10800.00
00733          -10800.00
00734          -11000.00
00735          -11000.00
00736          -11200.00
00737          -11000.00
00738          -11200.00
00739          -11400.00
00740          -11400.00
00741          -11600.00
00742          -11600.00
00743          -11600.00
00744          -11600.00
00745          -12000.00
00746          -12000.00
00747          -12000.00
00748          -12000.00
00749          -12000.00
00750          -11800.00
00751          -12200.00
00752          -12200.00
00753          -12200.00
00754          -12000.00
00755          -12000.00
00756          -12000.00
00757          -12200.00
00758          -12000.00
00759          -12200.00
00760          -12000.00
00761          -12000.00
00762          -12000.00
00763          -12000.00
00764          -12000.00
00765          -12000.00
00766          -11800.00
