Unit:(mV)
                     CH2
Frequency    301.394 kHz
00001            3800.00
00002            3200.00
00003            2800.00
00004            2400.00
00005            2000.00
00006            1400.00
00007            1200.00
00008             600.00
00009             200.00
00010            -200.00
00011            -400.00
00012           -1000.00
00013           -1400.00
00014           -1800.00
00015           -2200.00
00016           -2600.00
00017           -3200.00
00018           -3400.00
00019           -4000.00
00020           -4800.00
00021           -5000.00
00022           -5600.00
00023           -5800.00
00024           -6000.00
00025           -6400.00
00026           -7000.00
00027           -7400.00
00028           -7800.00
00029           -8400.00
00030           -8800.00
00031           -9000.00
00032           -9600.00
00033           -9800.00
00034          -10400.00
00035          -10800.00
00036          -11200.00
00037          -11600.00
00038          -12000.00
00039          -12200.00
00040          -12800.00
00041          -13000.00
00042          -13600.00
00043          -13800.00
00044          -14000.00
00045          -14600.00
00046          -15000.00
00047          -15400.00
00048          -15600.00
00049          -16000.00
00050          -16200.00
00051          -16600.00
00052          -16800.00
00053          -17200.00
00054          -17600.00
00055          -17800.00
00056          -18400.00
00057          -18400.00
00058          -18800.00
00059          -19000.00
00060          -19400.00
00061          -19600.00
00062          -19600.00
00063          -20000.00
00064          -20200.00
00065          -20600.00
00066          -20600.00
00067          -21000.00
00068          -21200.00
00069          -21200.00
00070          -21600.00
00071          -21800.00
00072          -22000.00
00073          -22000.00
00074          -22400.00
00075          -22400.00
00076          -22600.00
00077          -22600.00
00078          -22600.00
00079          -22800.00
00080          -22800.00
00081          -23200.00
00082          -23200.00
00083          -23400.00
00084          -23400.00
00085          -23400.00
00086          -23400.00
00087          -23600.00
00088          -23600.00
00089          -23600.00
00090          -23600.00
00091          -23800.00
00092          -23600.00
00093          -23600.00
00094          -23600.00
00095          -23600.00
00096          -23600.00
00097          -23400.00
00098          -23400.00
00099          -23400.00
00100          -23400.00
00101          -23400.00
00102          -23200.00
00103          -23200.00
00104          -23000.00
00105          -23000.00
00106          -22800.00
00107          -22600.00
00108          -22600.00
00109          -22600.00
00110          -22400.00
00111          -22200.00
00112          -22000.00
00113          -22000.00
00114          -21800.00
00115          -21600.00
00116          -21400.00
00117          -21200.00
00118          -21000.00
00119          -20800.00
00120          -20400.00
00121          -20200.00
00122          -20000.00
00123          -19600.00
00124          -19600.00
00125          -19200.00
00126          -19000.00
00127          -18600.00
00128          -18400.00
00129          -18400.00
00130          -18000.00
00131          -17400.00
00132          -17200.00
00133          -16800.00
00134          -16600.00
00135          -16200.00
00136          -16000.00
00137          -15600.00
00138          -15200.00
00139          -14800.00
00140          -14600.00
00141          -14400.00
00142          -13800.00
00143          -13600.00
00144          -13200.00
00145          -12800.00
00146          -12400.00
00147          -12000.00
00148          -11600.00
00149          -11200.00
00150          -10800.00
00151          -10400.00
00152          -10000.00
00153           -9600.00
00154           -9200.00
00155           -8800.00
00156           -8400.00
00157           -8000.00
00158           -7400.00
00159           -7200.00
00160           -6600.00
00161           -6200.00
00162           -5800.00
00163           -5200.00
00164           -4800.00
00165           -4400.00
00166           -4000.00
00167           -3600.00
00168           -3200.00
00169           -2600.00
00170           -2400.00
00171           -1800.00
00172           -1400.00
00173           -1000.00
00174            -400.00
00175            -200.00
00176             400.00
00177             800.00
00178            1200.00
00179            1600.00
00180            2000.00
00181            2400.00
00182            2800.00
00183            3200.00
00184            3600.00
00185            4000.00
00186            4600.00
00187            5200.00
00188            5600.00
00189            6000.00
00190            6400.00
00191            6400.00
00192            7200.00
00193            7600.00
00194            8000.00
00195            8400.00
00196            8800.00
00197            9200.00
00198            9600.00
00199           10000.00
00200           10400.00
00201           10800.00
00202           11200.00
00203           11800.00
00204           12000.00
00205           12400.00
00206           12800.00
00207           13200.00
00208           13600.00
00209           14000.00
00210           14400.00
00211           14800.00
00212           15000.00
00213           15200.00
00214           15800.00
00215           16000.00
00216           16400.00
00217           16800.00
00218           17000.00
00219           17400.00
00220           17600.00
00221           18000.00
00222           18400.00
00223           18600.00
00224           19000.00
00225           19000.00
00226           19200.00
00227           19600.00
00228           20000.00
00229           20000.00
00230           20400.00
00231           20600.00
00232           21000.00
00233           21200.00
00234           21200.00
00235           21400.00
00236           21600.00
00237           21800.00
00238           22000.00
00239           22200.00
00240           22400.00
00241           22400.00
00242           22600.00
00243           22800.00
00244           22800.00
00245           23000.00
00246           23000.00
00247           23200.00
00248           23200.00
00249           23200.00
00250           23400.00
00251           23600.00
00252           23600.00
00253           23600.00
00254           23600.00
00255           23800.00
00256           23600.00
00257           23800.00
00258           23800.00
00259           23600.00
00260           23800.00
00261           23800.00
00262           23600.00
00263           23600.00
00264           23600.00
00265           23600.00
00266           23600.00
00267           23400.00
00268           23200.00
00269           23200.00
00270           23000.00
00271           23000.00
00272           23000.00
00273           22800.00
00274           22800.00
00275           22600.00
00276           22400.00
00277           22200.00
00278           22200.00
00279           22000.00
00280           21800.00
00281           21600.00
00282           21400.00
00283           21200.00
00284           21000.00
00285           20800.00
00286           20600.00
00287           20400.00
00288           20000.00
00289           19800.00
00290           19600.00
00291           19200.00
00292           19000.00
00293           18800.00
00294           18600.00
00295           18200.00
00296           17800.00
00297           17400.00
00298           17400.00
00299           16800.00
00300           16600.00
00301           16400.00
00302           16000.00
00303           15800.00
00304           15200.00
00305           15000.00
00306           14600.00
00307           14400.00
00308           14000.00
00309           13600.00
00310           13200.00
00311           12800.00
00312           12400.00
00313           12200.00
00314           11800.00
00315           11200.00
00316           11000.00
00317           10600.00
00318           10000.00
00319            9600.00
00320            9200.00
00321            8800.00
00322            8600.00
00323            8000.00
00324            7600.00
00325            7200.00
00326            6800.00
00327            6200.00
00328            6000.00
00329            5600.00
00330            4800.00
00331            4600.00
00332            4200.00
00333            3600.00
00334            3200.00
00335            2800.00
00336            2400.00
00337            2000.00
00338            1400.00
00339            1000.00
00340             600.00
00341             200.00
00342            -200.00
00343            -600.00
00344           -1000.00
00345           -1800.00
00346           -2000.00
00347           -2400.00
00348           -2600.00
00349           -3200.00
00350           -3400.00
00351           -4000.00
00352           -4800.00
00353           -5200.00
00354           -5600.00
00355           -5800.00
00356           -6000.00
00357           -6400.00
00358           -7200.00
00359           -7400.00
00360           -8000.00
00361           -8400.00
00362           -8800.00
00363           -9200.00
00364           -9600.00
00365          -10000.00
00366          -10400.00
00367          -10800.00
00368          -11200.00
00369          -11600.00
00370          -12000.00
00371          -12400.00
00372          -12800.00
00373          -13200.00
00374          -13600.00
00375          -14000.00
00376          -14200.00
00377          -14800.00
00378          -15200.00
00379          -15400.00
00380          -15600.00
00381          -16000.00
00382          -16200.00
00383          -16600.00
00384          -17000.00
00385          -17400.00
00386          -17600.00
00387          -17800.00
00388          -18400.00
00389          -18400.00
00390          -18800.00
00391          -19000.00
00392          -19200.00
00393          -19600.00
00394          -19800.00
00395          -20200.00
00396          -20400.00
00397          -20600.00
00398          -20800.00
00399          -21000.00
00400          -21200.00
00401          -21400.00
00402          -21600.00
00403          -21800.00
00404          -21800.00
00405          -22000.00
00406          -22400.00
00407          -22400.00
00408          -22400.00
00409          -22600.00
00410          -22800.00
00411          -22800.00
00412          -22800.00
00413          -23200.00
00414          -23200.00
00415          -23200.00
00416          -23400.00
00417          -23400.00
00418          -23600.00
00419          -23400.00
00420          -23600.00
00421          -23600.00
00422          -23600.00
00423          -23600.00
00424          -23600.00
00425          -23600.00
00426          -23600.00
00427          -23400.00
00428          -23600.00
00429          -23400.00
00430          -23400.00
00431          -23400.00
00432          -23200.00
00433          -23400.00
00434          -23200.00
00435          -23200.00
00436          -23000.00
00437          -22800.00
00438          -22800.00
00439          -22600.00
00440          -22600.00
00441          -22400.00
00442          -22400.00
00443          -22200.00
00444          -22000.00
00445          -21800.00
00446          -21600.00
00447          -21600.00
00448          -21200.00
00449          -21000.00
00450          -20800.00
00451          -20600.00
00452          -20400.00
00453          -20200.00
00454          -20000.00
00455          -19600.00
00456          -19400.00
00457          -19200.00
00458          -18800.00
00459          -18600.00
00460          -18400.00
00461          -18400.00
00462          -17800.00
00463          -17400.00
00464          -17200.00
00465          -16800.00
00466          -16600.00
00467          -16200.00
00468          -16000.00
00469          -15600.00
00470          -15200.00
00471          -14800.00
00472          -14400.00
00473          -14000.00
00474          -13800.00
00475          -13400.00
00476          -13000.00
00477          -12600.00
00478          -12400.00
00479          -12000.00
00480          -11600.00
00481          -11200.00
00482          -10600.00
00483          -10400.00
00484          -10000.00
00485           -9600.00
00486           -9200.00
00487           -8800.00
00488           -8200.00
00489           -7800.00
00490           -7400.00
00491           -6800.00
00492           -6600.00
00493           -6000.00
00494           -5800.00
00495           -5200.00
00496           -4800.00
00497           -4400.00
00498           -4000.00
00499           -3600.00
00500           -3000.00
00501           -2600.00
00502           -2200.00
00503           -1800.00
00504           -1200.00
00505            -800.00
00506            -400.00
00507               0.00
00508             400.00
00509             800.00
00510            1400.00
00511            1800.00
00512            2200.00
00513            2400.00
00514            2800.00
00515            3400.00
00516            3600.00
00517            4000.00
00518            4600.00
00519            5200.00
00520            5800.00
00521            6000.00
00522            6400.00
00523            6600.00
00524            7200.00
00525            7600.00
00526            8200.00
00527            8600.00
00528            8800.00
00529            9200.00
00530            9800.00
00531           10000.00
00532           10600.00
00533           11000.00
00534           11200.00
00535           11800.00
00536           12000.00
00537           12400.00
00538           12800.00
00539           13200.00
00540           13600.00
00541           14000.00
00542           14400.00
00543           14800.00
00544           15000.00
00545           15600.00
00546           15800.00
00547           16000.00
00548           16400.00
00549           16800.00
00550           17000.00
00551           17400.00
00552           17600.00
00553           18000.00
00554           18400.00
00555           18600.00
00556           18800.00
00557           19200.00
00558           19600.00
00559           19600.00
00560           20000.00
00561           20200.00
00562           20400.00
00563           20600.00
00564           20800.00
00565           21000.00
00566           21200.00
00567           21400.00
00568           21600.00
00569           22000.00
00570           22000.00
00571           22000.00
00572           22200.00
00573           22400.00
00574           22400.00
00575           22800.00
00576           22800.00
00577           23000.00
00578           23000.00
00579           23200.00
00580           23200.00
00581           23400.00
00582           23400.00
00583           23400.00
00584           23600.00
00585           23600.00
00586           23600.00
00587           23800.00
00588           23600.00
00589           23800.00
00590           23800.00
00591           23600.00
00592           23600.00
00593           23600.00
00594           23600.00
00595           23600.00
00596           23600.00
00597           23400.00
00598           23600.00
00599           23400.00
00600           23200.00
00601           23200.00
00602           23000.00
00603           23000.00
00604           22800.00
00605           22800.00
00606           22600.00
00607           22400.00
00608           22200.00
00609           22200.00
00610           22000.00
00611           22000.00
00612           21800.00
00613           21400.00
00614           21400.00
00615           21200.00
00616           21200.00
00617           20800.00
00618           20400.00
00619           20200.00
00620           20000.00
00621           19800.00
00622           19600.00
00623           19200.00
00624           19000.00
00625           18600.00
00626           18400.00
00627           18200.00
00628           17800.00
00629           17600.00
00630           17200.00
00631           16800.00
00632           16600.00
00633           16200.00
00634           16000.00
00635           15600.00
00636           15200.00
00637           15000.00
00638           14600.00
00639           14200.00
00640           14000.00
00641           13400.00
00642           13200.00
00643           12800.00
00644           12400.00
00645           12000.00
00646           11600.00
00647           11200.00
00648           10800.00
00649           10400.00
00650           10000.00
00651            9600.00
00652            9200.00
00653            8800.00
00654            8400.00
00655            8000.00
00656            7600.00
00657            7000.00
00658            6800.00
00659            6200.00
00660            5800.00
00661            5400.00
00662            5000.00
00663            4400.00
00664            4000.00
00665            3600.00
00666            3200.00
00667            2800.00
00668            2200.00
00669            2000.00
00670            1400.00
00671             800.00
00672             400.00
00673             200.00
00674            -400.00
00675            -800.00
00676           -1200.00
00677           -1600.00
00678           -2000.00
00679           -2600.00
00680           -2800.00
00681           -3200.00
00682           -3600.00
00683           -4200.00
00684           -4800.00
00685           -5200.00
00686           -5600.00
00687           -6000.00
00688           -6200.00
00689           -6600.00
00690           -7200.00
00691           -7600.00
00692           -8000.00
00693           -8400.00
00694           -8800.00
00695           -9200.00
00696           -9600.00
00697          -10000.00
00698          -10600.00
00699          -10800.00
00700          -11200.00
00701          -11600.00
00702          -12000.00
00703          -12400.00
00704          -13000.00
00705          -13200.00
00706          -13600.00
00707          -13800.00
00708          -14400.00
00709          -14600.00
00710          -15200.00
00711          -15400.00
00712          -15800.00
00713          -16000.00
00714          -16400.00
00715          -16800.00
00716          -17000.00
00717          -17400.00
00718          -17800.00
00719          -18000.00
00720          -18400.00
00721          -18600.00
00722          -18800.00
00723          -19200.00
00724          -19400.00
00725          -19600.00
00726          -20000.00
00727          -20000.00
00728          -20400.00
00729          -20400.00
00730          -20800.00
00731          -21000.00
00732          -21200.00
00733          -21400.00
00734          -21600.00
00735          -21800.00
00736          -22000.00
00737          -22000.00
00738          -22200.00
00739          -22400.00
00740          -22600.00
00741          -22600.00
00742          -22800.00
00743          -22800.00
00744          -23200.00
00745          -23000.00
00746          -23200.00
00747          -23200.00
00748          -23400.00
00749          -23400.00
00750          -23400.00
00751          -23600.00
00752          -23600.00
00753          -23400.00
00754          -23600.00
00755          -23400.00
00756          -23600.00
00757          -23600.00
00758          -23600.00
00759          -23600.00
00760          -23400.00
00761          -23400.00
00762          -23600.00
00763          -23200.00
00764          -23400.00
00765          -23200.00
00766          -23200.00
