Unit:(mV)
                     CH2
Frequency    301.213 kHz
00001            2400.00
00002            2000.00
00003            1600.00
00004            1400.00
00005             800.00
00006             600.00
00007             400.00
00008            -200.00
00009            -400.00
00010            -800.00
00011           -1000.00
00012           -1200.00
00013           -1800.00
00014           -1800.00
00015           -2200.00
00016           -2400.00
00017           -2800.00
00018           -3200.00
00019           -3600.00
00020           -4200.00
00021           -4400.00
00022           -4200.00
00023           -4400.00
00024           -5200.00
00025           -5600.00
00026           -5600.00
00027           -6000.00
00028           -6400.00
00029           -6600.00
00030           -7200.00
00031           -7200.00
00032           -7600.00
00033           -8000.00
00034           -8200.00
00035           -8400.00
00036           -9000.00
00037           -9000.00
00038           -9400.00
00039           -9600.00
00040           -9800.00
00041          -10200.00
00042          -10400.00
00043          -10800.00
00044          -11200.00
00045          -11200.00
00046          -11400.00
00047          -12000.00
00048          -12200.00
00049          -12200.00
00050          -12600.00
00051          -12600.00
00052          -13000.00
00053          -13200.00
00054          -13600.00
00055          -13800.00
00056          -13800.00
00057          -14200.00
00058          -14400.00
00059          -14600.00
00060          -14800.00
00061          -14800.00
00062          -15000.00
00063          -15200.00
00064          -15400.00
00065          -15600.00
00066          -15800.00
00067          -16000.00
00068          -16200.00
00069          -16200.00
00070          -16200.00
00071          -16400.00
00072          -16600.00
00073          -16800.00
00074          -16800.00
00075          -16800.00
00076          -17000.00
00077          -17000.00
00078          -17000.00
00079          -17200.00
00080          -17200.00
00081          -17400.00
00082          -17400.00
00083          -17400.00
00084          -17600.00
00085          -17400.00
00086          -17400.00
00087          -17600.00
00088          -17800.00
00089          -17800.00
00090          -17400.00
00091          -17800.00
00092          -17600.00
00093          -17600.00
00094          -17600.00
00095          -17400.00
00096          -17400.00
00097          -17400.00
00098          -17400.00
00099          -17200.00
00100          -17400.00
00101          -17200.00
00102          -17200.00
00103          -17200.00
00104          -17200.00
00105          -17000.00
00106          -16800.00
00107          -16800.00
00108          -16600.00
00109          -16600.00
00110          -16400.00
00111          -16200.00
00112          -16200.00
00113          -16000.00
00114          -16000.00
00115          -15800.00
00116          -15600.00
00117          -15600.00
00118          -15400.00
00119          -15000.00
00120          -15000.00
00121          -14800.00
00122          -14600.00
00123          -14400.00
00124          -14000.00
00125          -14000.00
00126          -13800.00
00127          -13800.00
00128          -13400.00
00129          -13200.00
00130          -12800.00
00131          -12600.00
00132          -12400.00
00133          -12400.00
00134          -12000.00
00135          -11600.00
00136          -11400.00
00137          -11200.00
00138          -10800.00
00139          -10600.00
00140          -10400.00
00141          -10000.00
00142          -10000.00
00143           -9600.00
00144           -9200.00
00145           -9000.00
00146           -8800.00
00147           -8400.00
00148           -8200.00
00149           -8000.00
00150           -7400.00
00151           -7200.00
00152           -7000.00
00153           -6600.00
00154           -6400.00
00155           -5800.00
00156           -5800.00
00157           -5400.00
00158           -5200.00
00159           -4800.00
00160           -4400.00
00161           -4000.00
00162           -3600.00
00163           -3400.00
00164           -3200.00
00165           -2800.00
00166           -2400.00
00167           -2200.00
00168           -1800.00
00169           -1600.00
00170           -1200.00
00171            -800.00
00172            -400.00
00173            -200.00
00174             200.00
00175             400.00
00176             800.00
00177            1200.00
00178            1600.00
00179            1800.00
00180            2000.00
00181            2400.00
00182            2600.00
00183            3000.00
00184            3200.00
00185            3800.00
00186            4000.00
00187            4400.00
00188            4600.00
00189            4800.00
00190            5200.00
00191            5600.00
00192            5800.00
00193            6200.00
00194            6400.00
00195            6800.00
00196            7200.00
00197            7400.00
00198            7800.00
00199            8000.00
00200            8400.00
00201            8600.00
00202            8800.00
00203            9200.00
00204            9400.00
00205            9600.00
00206           10000.00
00207           10400.00
00208           10600.00
00209           11000.00
00210           11200.00
00211           11200.00
00212           11800.00
00213           12000.00
00214           12200.00
00215           12600.00
00216           12600.00
00217           13000.00
00218           13200.00
00219           13400.00
00220           13600.00
00221           13800.00
00222           14000.00
00223           14400.00
00224           14600.00
00225           14800.00
00226           14800.00
00227           15000.00
00228           15200.00
00229           15200.00
00230           15600.00
00231           15800.00
00232           15800.00
00233           16000.00
00234           16200.00
00235           16400.00
00236           16400.00
00237           16600.00
00238           16600.00
00239           16800.00
00240           16800.00
00241           16800.00
00242           17000.00
00243           17200.00
00244           17200.00
00245           17400.00
00246           17400.00
00247           17600.00
00248           17600.00
00249           17600.00
00250           17600.00
00251           17600.00
00252           17800.00
00253           17800.00
00254           17800.00
00255           18000.00
00256           17600.00
00257           17600.00
00258           17600.00
00259           17600.00
00260           17800.00
00261           17600.00
00262           17600.00
00263           17600.00
00264           17600.00
00265           17600.00
00266           17400.00
00267           17400.00
00268           17400.00
00269           17200.00
00270           17200.00
00271           17200.00
00272           17200.00
00273           16800.00
00274           17000.00
00275           16600.00
00276           16400.00
00277           16400.00
00278           16400.00
00279           16200.00
00280           16000.00
00281           16000.00
00282           15800.00
00283           15800.00
00284           15600.00
00285           15200.00
00286           15200.00
00287           14800.00
00288           14800.00
00289           14600.00
00290           14400.00
00291           14200.00
00292           14000.00
00293           13600.00
00294           13400.00
00295           13400.00
00296           13200.00
00297           12800.00
00298           12600.00
00299           12400.00
00300           12200.00
00301           12000.00
00302           11600.00
00303           11200.00
00304           11000.00
00305           10800.00
00306           10800.00
00307           10400.00
00308           10000.00
00309            9600.00
00310            9400.00
00311            9200.00
00312            8800.00
00313            8600.00
00314            8400.00
00315            8000.00
00316            7600.00
00317            7600.00
00318            7000.00
00319            6800.00
00320            6400.00
00321            6200.00
00322            6000.00
00323            5600.00
00324            5200.00
00325            4800.00
00326            4600.00
00327            4200.00
00328            3800.00
00329            3600.00
00330            3200.00
00331            2800.00
00332            2600.00
00333            2400.00
00334            2000.00
00335            1800.00
00336            1200.00
00337             800.00
00338             600.00
00339             400.00
00340               0.00
00341            -400.00
00342            -600.00
00343           -1000.00
00344           -1200.00
00345           -1600.00
00346           -1800.00
00347           -2000.00
00348           -2400.00
00349           -2800.00
00350           -3200.00
00351           -3800.00
00352           -4200.00
00353           -4400.00
00354           -4200.00
00355           -4600.00
00356           -5200.00
00357           -5600.00
00358           -5600.00
00359           -6000.00
00360           -6400.00
00361           -6600.00
00362           -7200.00
00363           -7200.00
00364           -7600.00
00365           -8000.00
00366           -8200.00
00367           -8400.00
00368           -9000.00
00369           -9000.00
00370           -9400.00
00371           -9800.00
00372           -9800.00
00373          -10400.00
00374          -10400.00
00375          -10800.00
00376          -11200.00
00377          -11200.00
00378          -11400.00
00379          -12000.00
00380          -12200.00
00381          -12200.00
00382          -12800.00
00383          -12800.00
00384          -13000.00
00385          -13200.00
00386          -13400.00
00387          -13800.00
00388          -13800.00
00389          -14200.00
00390          -14400.00
00391          -14400.00
00392          -14600.00
00393          -14800.00
00394          -15000.00
00395          -15400.00
00396          -15400.00
00397          -15600.00
00398          -15600.00
00399          -15800.00
00400          -16000.00
00401          -16200.00
00402          -16200.00
00403          -16400.00
00404          -16400.00
00405          -16800.00
00406          -16800.00
00407          -16800.00
00408          -17000.00
00409          -17000.00
00410          -17000.00
00411          -17200.00
00412          -17200.00
00413          -17400.00
00414          -17600.00
00415          -17400.00
00416          -17400.00
00417          -17400.00
00418          -17600.00
00419          -17600.00
00420          -17600.00
00421          -17600.00
00422          -17400.00
00423          -17600.00
00424          -17600.00
00425          -17600.00
00426          -17400.00
00427          -17600.00
00428          -17600.00
00429          -17400.00
00430          -17200.00
00431          -17400.00
00432          -17200.00
00433          -17200.00
00434          -17200.00
00435          -17000.00
00436          -17000.00
00437          -17000.00
00438          -16800.00
00439          -16800.00
00440          -16600.00
00441          -16800.00
00442          -16400.00
00443          -16400.00
00444          -16200.00
00445          -16000.00
00446          -16000.00
00447          -15800.00
00448          -15800.00
00449          -15400.00
00450          -15200.00
00451          -15200.00
00452          -15000.00
00453          -14800.00
00454          -14600.00
00455          -14400.00
00456          -14400.00
00457          -14000.00
00458          -13800.00
00459          -13600.00
00460          -13400.00
00461          -13000.00
00462          -12800.00
00463          -12800.00
00464          -12400.00
00465          -12200.00
00466          -12000.00
00467          -11600.00
00468          -11400.00
00469          -11200.00
00470          -11000.00
00471          -10600.00
00472          -10400.00
00473          -10000.00
00474           -9800.00
00475           -9600.00
00476           -9200.00
00477           -9000.00
00478           -8800.00
00479           -8400.00
00480           -8000.00
00481           -8000.00
00482           -7600.00
00483           -7000.00
00484           -6800.00
00485           -6600.00
00486           -6400.00
00487           -6000.00
00488           -5800.00
00489           -5200.00
00490           -5000.00
00491           -4600.00
00492           -4200.00
00493           -4200.00
00494           -3600.00
00495           -3600.00
00496           -3200.00
00497           -2800.00
00498           -2400.00
00499           -2000.00
00500           -1800.00
00501           -1400.00
00502           -1200.00
00503            -800.00
00504            -400.00
00505               0.00
00506               0.00
00507             400.00
00508             800.00
00509            1200.00
00510            1400.00
00511            1800.00
00512            2000.00
00513            2200.00
00514            2600.00
00515            3000.00
00516            3200.00
00517            3800.00
00518            4000.00
00519            4400.00
00520            4600.00
00521            4800.00
00522            5200.00
00523            5600.00
00524            6000.00
00525            6400.00
00526            6400.00
00527            6800.00
00528            7200.00
00529            7400.00
00530            7800.00
00531            8200.00
00532            8400.00
00533            8600.00
00534            9000.00
00535            9200.00
00536            9600.00
00537            9800.00
00538           10000.00
00539           10400.00
00540           10600.00
00541           10800.00
00542           11200.00
00543           11400.00
00544           11800.00
00545           11800.00
00546           12200.00
00547           12600.00
00548           12800.00
00549           12800.00
00550           13200.00
00551           13400.00
00552           13600.00
00553           13800.00
00554           14200.00
00555           14400.00
00556           14400.00
00557           14600.00
00558           14800.00
00559           15000.00
00560           15200.00
00561           15400.00
00562           15600.00
00563           15600.00
00564           15800.00
00565           16000.00
00566           16000.00
00567           16400.00
00568           16400.00
00569           16400.00
00570           16600.00
00571           16800.00
00572           16800.00
00573           16800.00
00574           17200.00
00575           17200.00
00576           17400.00
00577           17400.00
00578           17400.00
00579           17600.00
00580           17600.00
00581           17600.00
00582           17600.00
00583           17600.00
00584           18000.00
00585           17800.00
00586           17800.00
00587           17600.00
00588           17600.00
00589           17800.00
00590           18000.00
00591           17800.00
00592           17800.00
00593           17600.00
00594           17800.00
00595           17600.00
00596           17600.00
00597           17600.00
00598           17400.00
00599           17600.00
00600           17400.00
00601           17400.00
00602           17200.00
00603           17200.00
00604           17200.00
00605           17000.00
00606           16800.00
00607           16800.00
00608           16600.00
00609           16600.00
00610           16400.00
00611           16400.00
00612           16200.00
00613           16000.00
00614           15800.00
00615           15800.00
00616           15600.00
00617           15200.00
00618           15000.00
00619           15000.00
00620           14800.00
00621           14600.00
00622           14400.00
00623           14000.00
00624           14000.00
00625           13600.00
00626           13400.00
00627           13200.00
00628           13000.00
00629           12800.00
00630           12600.00
00631           12400.00
00632           12200.00
00633           11800.00
00634           11800.00
00635           11200.00
00636           11200.00
00637           10800.00
00638           10800.00
00639           10400.00
00640           10000.00
00641            9800.00
00642            9400.00
00643            9200.00
00644            8800.00
00645            8600.00
00646            8400.00
00647            8000.00
00648            7800.00
00649            7400.00
00650            7200.00
00651            6800.00
00652            6600.00
00653            6200.00
00654            6000.00
00655            5600.00
00656            5200.00
00657            4800.00
00658            4600.00
00659            4200.00
00660            3800.00
00661            3600.00
00662            3200.00
00663            3000.00
00664            2600.00
00665            2400.00
00666            2000.00
00667            1600.00
00668            1400.00
00669            1000.00
00670             600.00
00671             400.00
00672               0.00
00673            -400.00
00674            -800.00
00675           -1000.00
00676           -1400.00
00677           -1600.00
00678           -2000.00
00679           -2000.00
00680           -2400.00
00681           -2800.00
00682           -3200.00
00683           -3800.00
00684           -4200.00
00685           -4400.00
00686           -4400.00
00687           -4400.00
00688           -5200.00
00689           -5400.00
00690           -5600.00
00691           -6000.00
00692           -6400.00
00693           -6600.00
00694           -7000.00
00695           -7200.00
00696           -7600.00
00697           -8000.00
00698           -8200.00
00699           -8600.00
00700           -9000.00
00701           -9000.00
00702           -9200.00
00703           -9800.00
00704           -9800.00
00705          -10200.00
00706          -10400.00
00707          -10600.00
00708          -11000.00
00709          -11200.00
00710          -11400.00
00711          -12000.00
00712          -12000.00
00713          -12400.00
00714          -12600.00
00715          -12800.00
00716          -13200.00
00717          -13200.00
00718          -13400.00
00719          -13600.00
00720          -13800.00
00721          -14200.00
00722          -14400.00
00723          -14600.00
00724          -14600.00
00725          -14800.00
00726          -15200.00
00727          -15200.00
00728          -15400.00
00729          -15400.00
00730          -15800.00
00731          -16000.00
00732          -16000.00
00733          -16200.00
00734          -16200.00
00735          -16400.00
00736          -16400.00
00737          -16800.00
00738          -16600.00
00739          -16800.00
00740          -17000.00
00741          -17000.00
00742          -17200.00
00743          -17200.00
00744          -17200.00
00745          -17400.00
00746          -17400.00
00747          -17200.00
00748          -17400.00
00749          -17400.00
00750          -17600.00
00751          -17600.00
00752          -17600.00
00753          -17800.00
00754          -17600.00
00755          -17400.00
00756          -17600.00
00757          -17600.00
00758          -17400.00
00759          -17600.00
00760          -17400.00
00761          -17400.00
00762          -17200.00
00763          -17600.00
00764          -17200.00
00765          -17200.00
00766          -17200.00
