Unit:(mV)
                     CH2
Frequency    301.174 kHz
00001            2000.00
00002            1800.00
00003            1600.00
00004            1200.00
00005            1200.00
00006             600.00
00007             400.00
00008               0.00
00009               0.00
00010            -200.00
00011            -800.00
00012            -800.00
00013           -1000.00
00014           -1400.00
00015           -1600.00
00016           -1800.00
00017           -2000.00
00018           -2000.00
00019           -2600.00
00020           -3200.00
00021           -3400.00
00022           -3400.00
00023           -3200.00
00024           -3600.00
00025           -4200.00
00026           -4200.00
00027           -4400.00
00028           -5000.00
00029           -5000.00
00030           -5200.00
00031           -5800.00
00032           -5600.00
00033           -6000.00
00034           -6400.00
00035           -6400.00
00036           -6800.00
00037           -6800.00
00038           -7000.00
00039           -7600.00
00040           -7600.00
00041           -7600.00
00042           -8200.00
00043           -8400.00
00044           -8400.00
00045           -8800.00
00046           -8800.00
00047           -9200.00
00048           -9400.00
00049           -9600.00
00050           -9800.00
00051          -10000.00
00052          -10000.00
00053          -10400.00
00054          -10400.00
00055          -10600.00
00056          -10800.00
00057          -11000.00
00058          -11200.00
00059          -11200.00
00060          -11400.00
00061          -11600.00
00062          -11600.00
00063          -12000.00
00064          -12000.00
00065          -12200.00
00066          -12400.00
00067          -12400.00
00068          -12400.00
00069          -12800.00
00070          -12800.00
00071          -12800.00
00072          -13000.00
00073          -13000.00
00074          -13000.00
00075          -13200.00
00076          -13400.00
00077          -13200.00
00078          -13400.00
00079          -13400.00
00080          -13600.00
00081          -13600.00
00082          -13600.00
00083          -13800.00
00084          -13800.00
00085          -13800.00
00086          -13800.00
00087          -13800.00
00088          -13800.00
00089          -13800.00
00090          -14000.00
00091          -14000.00
00092          -13800.00
00093          -13800.00
00094          -14000.00
00095          -13800.00
00096          -13800.00
00097          -13600.00
00098          -13800.00
00099          -13600.00
00100          -13600.00
00101          -13600.00
00102          -13600.00
00103          -13400.00
00104          -13600.00
00105          -13400.00
00106          -13200.00
00107          -13200.00
00108          -13200.00
00109          -13000.00
00110          -13000.00
00111          -13000.00
00112          -12800.00
00113          -12800.00
00114          -12600.00
00115          -12400.00
00116          -12400.00
00117          -12400.00
00118          -12200.00
00119          -12000.00
00120          -12000.00
00121          -11600.00
00122          -11600.00
00123          -11400.00
00124          -11200.00
00125          -11000.00
00126          -10800.00
00127          -10800.00
00128          -10600.00
00129          -10400.00
00130          -10200.00
00131          -10000.00
00132           -9800.00
00133           -9800.00
00134           -9600.00
00135           -9400.00
00136           -9000.00
00137           -9000.00
00138           -8800.00
00139           -8400.00
00140           -8400.00
00141           -8200.00
00142           -8000.00
00143           -7800.00
00144           -7600.00
00145           -7200.00
00146           -7200.00
00147           -6800.00
00148           -6600.00
00149           -6400.00
00150           -6000.00
00151           -6000.00
00152           -5600.00
00153           -5600.00
00154           -5000.00
00155           -4800.00
00156           -4600.00
00157           -4400.00
00158           -4200.00
00159           -4000.00
00160           -3600.00
00161           -3400.00
00162           -3000.00
00163           -2800.00
00164           -2600.00
00165           -2400.00
00166           -2200.00
00167           -2000.00
00168           -1600.00
00169           -1200.00
00170           -1000.00
00171            -800.00
00172            -600.00
00173            -200.00
00174               0.00
00175             400.00
00176             400.00
00177             800.00
00178             800.00
00179            1200.00
00180            1400.00
00181            1800.00
00182            2000.00
00183            2200.00
00184            2400.00
00185            2800.00
00186            3200.00
00187            3400.00
00188            3600.00
00189            3600.00
00190            3800.00
00191            4000.00
00192            4400.00
00193            4600.00
00194            5000.00
00195            5000.00
00196            5600.00
00197            5800.00
00198            6000.00
00199            6200.00
00200            6400.00
00201            6600.00
00202            7000.00
00203            7200.00
00204            7200.00
00205            7600.00
00206            7800.00
00207            8200.00
00208            8400.00
00209            8400.00
00210            8600.00
00211            8800.00
00212            9200.00
00213            9200.00
00214            9400.00
00215            9600.00
00216           10000.00
00217           10000.00
00218           10200.00
00219           10400.00
00220           10600.00
00221           10800.00
00222           11000.00
00223           11000.00
00224           11200.00
00225           11200.00
00226           11600.00
00227           11800.00
00228           11800.00
00229           12000.00
00230           12200.00
00231           12400.00
00232           12400.00
00233           12600.00
00234           12600.00
00235           12800.00
00236           12800.00
00237           12800.00
00238           13200.00
00239           13200.00
00240           13200.00
00241           13400.00
00242           13400.00
00243           13600.00
00244           13600.00
00245           13600.00
00246           13800.00
00247           13600.00
00248           14000.00
00249           13800.00
00250           13800.00
00251           14000.00
00252           14000.00
00253           14000.00
00254           14000.00
00255           14200.00
00256           14000.00
00257           14000.00
00258           14000.00
00259           14000.00
00260           14000.00
00261           13800.00
00262           14000.00
00263           14000.00
00264           13800.00
00265           14000.00
00266           13800.00
00267           13800.00
00268           13600.00
00269           13600.00
00270           13600.00
00271           13600.00
00272           13400.00
00273           13400.00
00274           13200.00
00275           13400.00
00276           13200.00
00277           13200.00
00278           13000.00
00279           12800.00
00280           12800.00
00281           12600.00
00282           12600.00
00283           12400.00
00284           12400.00
00285           12200.00
00286           12000.00
00287           11800.00
00288           11800.00
00289           11600.00
00290           11600.00
00291           11200.00
00292           11200.00
00293           11000.00
00294           10800.00
00295           10800.00
00296           10400.00
00297           10200.00
00298           10000.00
00299           10000.00
00300            9600.00
00301            9600.00
00302            9400.00
00303            9200.00
00304            8800.00
00305            8800.00
00306            8600.00
00307            8400.00
00308            8000.00
00309            7800.00
00310            7600.00
00311            7600.00
00312            7200.00
00313            6800.00
00314            6800.00
00315            6400.00
00316            6400.00
00317            6000.00
00318            6000.00
00319            5600.00
00320            5400.00
00321            5200.00
00322            4800.00
00323            4400.00
00324            4200.00
00325            4000.00
00326            3800.00
00327            3600.00
00328            3200.00
00329            3000.00
00330            2800.00
00331            2400.00
00332            2400.00
00333            2000.00
00334            1600.00
00335            1400.00
00336            1200.00
00337            1000.00
00338             800.00
00339             400.00
00340               0.00
00341               0.00
00342            -400.00
00343            -600.00
00344            -800.00
00345           -1000.00
00346           -1600.00
00347           -1600.00
00348           -1800.00
00349           -2000.00
00350           -2200.00
00351           -2600.00
00352           -3200.00
00353           -3400.00
00354           -3200.00
00355           -3400.00
00356           -3800.00
00357           -4200.00
00358           -4200.00
00359           -4400.00
00360           -5000.00
00361           -5000.00
00362           -5200.00
00363           -5800.00
00364           -5800.00
00365           -5800.00
00366           -6400.00
00367           -6400.00
00368           -6800.00
00369           -7200.00
00370           -7000.00
00371           -7400.00
00372           -7800.00
00373           -7800.00
00374           -8200.00
00375           -8200.00
00376           -8400.00
00377           -9000.00
00378           -9000.00
00379           -9200.00
00380           -9600.00
00381           -9600.00
00382           -9800.00
00383          -10000.00
00384          -10000.00
00385          -10400.00
00386          -10600.00
00387          -10600.00
00388          -10800.00
00389          -10800.00
00390          -11200.00
00391          -11000.00
00392          -11400.00
00393          -11600.00
00394          -11800.00
00395          -12000.00
00396          -12000.00
00397          -12200.00
00398          -12200.00
00399          -12400.00
00400          -12400.00
00401          -12600.00
00402          -12800.00
00403          -12800.00
00404          -13000.00
00405          -13000.00
00406          -13000.00
00407          -13200.00
00408          -13200.00
00409          -13400.00
00410          -13400.00
00411          -13400.00
00412          -13600.00
00413          -13600.00
00414          -13600.00
00415          -13800.00
00416          -13800.00
00417          -13800.00
00418          -13800.00
00419          -14000.00
00420          -13800.00
00421          -13800.00
00422          -14000.00
00423          -13800.00
00424          -14000.00
00425          -14000.00
00426          -13800.00
00427          -13800.00
00428          -13800.00
00429          -13800.00
00430          -13800.00
00431          -13800.00
00432          -13600.00
00433          -13800.00
00434          -13600.00
00435          -13600.00
00436          -13200.00
00437          -13400.00
00438          -13400.00
00439          -13400.00
00440          -13200.00
00441          -13000.00
00442          -13000.00
00443          -13000.00
00444          -12800.00
00445          -12800.00
00446          -12600.00
00447          -12400.00
00448          -12400.00
00449          -12200.00
00450          -12200.00
00451          -12000.00
00452          -12000.00
00453          -11600.00
00454          -11600.00
00455          -11400.00
00456          -11400.00
00457          -11000.00
00458          -10800.00
00459          -10800.00
00460          -10600.00
00461          -10400.00
00462          -10400.00
00463          -10000.00
00464          -10000.00
00465           -9600.00
00466           -9600.00
00467           -9400.00
00468           -9200.00
00469           -9000.00
00470           -8800.00
00471           -8800.00
00472           -8400.00
00473           -8200.00
00474           -8000.00
00475           -7600.00
00476           -7400.00
00477           -7200.00
00478           -7200.00
00479           -6800.00
00480           -6600.00
00481           -6400.00
00482           -6000.00
00483           -6000.00
00484           -5600.00
00485           -5600.00
00486           -5200.00
00487           -4800.00
00488           -4600.00
00489           -4400.00
00490           -4200.00
00491           -4000.00
00492           -3600.00
00493           -3400.00
00494           -3200.00
00495           -2800.00
00496           -2600.00
00497           -2400.00
00498           -2000.00
00499           -2000.00
00500           -1600.00
00501           -1200.00
00502           -1200.00
00503            -800.00
00504            -600.00
00505            -200.00
00506               0.00
00507             400.00
00508             400.00
00509             800.00
00510            1000.00
00511            1200.00
00512            1400.00
00513            1800.00
00514            2000.00
00515            2200.00
00516            2400.00
00517            2800.00
00518            3200.00
00519            3400.00
00520            3400.00
00521            3600.00
00522            4000.00
00523            4200.00
00524            4400.00
00525            4800.00
00526            5000.00
00527            5200.00
00528            5400.00
00529            6000.00
00530            6000.00
00531            6200.00
00532            6400.00
00533            6400.00
00534            7000.00
00535            7000.00
00536            7200.00
00537            7600.00
00538            7800.00
00539            8200.00
00540            8400.00
00541            8400.00
00542            8600.00
00543            8800.00
00544            9000.00
00545            9400.00
00546            9400.00
00547            9600.00
00548           10000.00
00549           10200.00
00550           10200.00
00551           10600.00
00552           10600.00
00553           10800.00
00554           10800.00
00555           11000.00
00556           11200.00
00557           11400.00
00558           11600.00
00559           11800.00
00560           11800.00
00561           12000.00
00562           12400.00
00563           12400.00
00564           12400.00
00565           12600.00
00566           12800.00
00567           12800.00
00568           12800.00
00569           12800.00
00570           13200.00
00571           13200.00
00572           13200.00
00573           13400.00
00574           13400.00
00575           13600.00
00576           13600.00
00577           13600.00
00578           13600.00
00579           13800.00
00580           13800.00
00581           14000.00
00582           14000.00
00583           14000.00
00584           14000.00
00585           14000.00
00586           14000.00
00587           14000.00
00588           14200.00
00589           14000.00
00590           14000.00
00591           14000.00
00592           14000.00
00593           14000.00
00594           14000.00
00595           14000.00
00596           14000.00
00597           13800.00
00598           13800.00
00599           13800.00
00600           13600.00
00601           13800.00
00602           13600.00
00603           13600.00
00604           13600.00
00605           13400.00
00606           13400.00
00607           13200.00
00608           13200.00
00609           13000.00
00610           13000.00
00611           12800.00
00612           12800.00
00613           12600.00
00614           12600.00
00615           12400.00
00616           12400.00
00617           12200.00
00618           12000.00
00619           11800.00
00620           11800.00
00621           11600.00
00622           11600.00
00623           11200.00
00624           11200.00
00625           11000.00
00626           10800.00
00627           10800.00
00628           10400.00
00629           10200.00
00630           10000.00
00631           10000.00
00632            9600.00
00633            9600.00
00634            9400.00
00635            9200.00
00636            8800.00
00637            8800.00
00638            8600.00
00639            8400.00
00640            8200.00
00641            8000.00
00642            7600.00
00643            7600.00
00644            7200.00
00645            7000.00
00646            6800.00
00647            6600.00
00648            6200.00
00649            6200.00
00650            6000.00
00651            5600.00
00652            5400.00
00653            5200.00
00654            4800.00
00655            4600.00
00656            4400.00
00657            4000.00
00658            3800.00
00659            3400.00
00660            3400.00
00661            3000.00
00662            2800.00
00663            2600.00
00664            2200.00
00665            2200.00
00666            1800.00
00667            1400.00
00668            1200.00
00669             800.00
00670             600.00
00671             600.00
00672             200.00
00673            -200.00
00674            -200.00
00675            -400.00
00676            -800.00
00677           -1000.00
00678           -1200.00
00679           -1600.00
00680           -1800.00
00681           -2000.00
00682           -2200.00
00683           -2600.00
00684           -3200.00
00685           -3400.00
00686           -3400.00
00687           -3400.00
00688           -3600.00
00689           -4200.00
00690           -4200.00
00691           -4400.00
00692           -5000.00
00693           -5000.00
00694           -5200.00
00695           -5600.00
00696           -5800.00
00697           -6000.00
00698           -6400.00
00699           -6400.00
00700           -6600.00
00701           -7000.00
00702           -7200.00
00703           -7400.00
00704           -7800.00
00705           -8000.00
00706           -8200.00
00707           -8400.00
00708           -8400.00
00709           -8800.00
00710           -8800.00
00711           -9000.00
00712           -9400.00
00713           -9600.00
00714           -9800.00
00715           -9800.00
00716          -10000.00
00717          -10400.00
00718          -10400.00
00719          -10600.00
00720          -10800.00
00721          -10800.00
00722          -11000.00
00723          -11200.00
00724          -11400.00
00725          -11400.00
00726          -11600.00
00727          -11800.00
00728          -12200.00
00729          -12200.00
00730          -12200.00
00731          -12400.00
00732          -12400.00
00733          -12800.00
00734          -12800.00
00735          -12800.00
00736          -12800.00
00737          -13000.00
00738          -13200.00
00739          -13200.00
00740          -13200.00
00741          -13200.00
00742          -13400.00
00743          -13400.00
00744          -13600.00
00745          -13600.00
00746          -13600.00
00747          -13800.00
00748          -13800.00
00749          -13800.00
00750          -13800.00
00751          -13800.00
00752          -14000.00
00753          -13800.00
00754          -13800.00
00755          -14000.00
00756          -13800.00
00757          -14000.00
00758          -13800.00
00759          -13800.00
00760          -13800.00
00761          -14000.00
00762          -13600.00
00763          -13600.00
00764          -13800.00
00765          -13800.00
00766          -13600.00
